#XDI/1.1  GSE/1.0
# Column.1: energy eV
# Column.2: itrans
# Column.3: i0
# Scan.end_time: 2008-04-10 19:35:01
# Scan.start_time: 2008-04-10 19:17:19
# Element.symbol:  Se
# Element.edge:  K
# Mono.d_spacing:  3.13555
# Mono.name: Si 111
# Sample.temperature: room temperature
# Sample.formula: CuSe
# Sample.name: copper selenide, klockmannite
# Sample.prep: powder on tape, many layers
# Facility.Name:  APS
# Beamline.Name:  13-BM-D
# Beamline.xray_source:  bending magnet
# Beamline.Storage_Ring_Current: 101.873
# Beamline.I0: N2, 5 nA/V
# Beamline.I1: N2, 20 nA/V
# ScanParameters.E0: 12658.0
# ScanParameters.Legend: Start       Stop       Step       Npts       Time   Kspace?
# ScanParameters.Region1: -150.00    -10.000     5.0000     29.000     2.0000   0
# ScanParameters.Region2: -10.000     30.000    0.25000     161.00     2.0000   0
# ScanParameters.Region3: 2.8061     14.000   0.039978     281.00     2.0000   1
#-------------------------
#  energy  itrans  i0
   12508.000   493738.40    120177.40
   12513.000   490898.40    119360.40
   12518.000   489640.40    118973.40
   12523.000   487890.40    118451.40
   12528.000   491094.40    119094.40
   12533.000   493536.40    119565.40
   12538.000   493365.40    119442.40
   12543.000   492275.40    119070.40
   12548.000   491645.40    118830.40
   12553.000   492091.40    118835.40
   12558.000   492772.40    118903.40
   12563.000   493377.40    118962.40
   12568.000   494804.40    119192.40
   12573.000   494694.40    119091.40
   12578.000   494292.40    118868.40
   12583.000   493888.40    118672.40
   12588.000   493769.40    118540.40
   12593.000   496462.40    119117.40
   12598.000   495498.40    118808.40
   12603.000   494854.40    118578.40
   12608.000   496424.40    118867.40
   12613.000   497208.40    118972.40
   12618.000   497286.40    118888.40
   12623.000   496943.40    118750.40
   12628.000   497898.40    118919.40
   12633.000   498570.40    119050.40
   12638.000   497618.40    118841.40
   12643.000   496321.40    118657.40
   12648.000   494561.40    118701.40
   12648.250   495243.40    118924.40
   12648.500   495520.40    119012.40
   12648.750   495632.40    119112.40
   12649.000   495803.40    119228.40
   12649.250   495552.40    119216.40
   12649.500   495699.40    119334.40
   12649.750   495246.40    119286.40
   12650.000   494488.40    119202.40
   12650.250   493953.40    119182.40
   12650.500   493440.40    119148.40
   12650.750   492642.40    119098.40
   12651.000   492201.40    119090.40
   12651.250   491253.40    119076.40
   12651.500   493015.40    119714.40
   12651.750   492507.40    119761.40
   12652.000   491492.40    119823.40
   12652.250   490399.40    119822.40
   12652.500   487893.40    119633.40
   12652.750   486242.40    119558.40
   12653.000   483873.40    119547.40
   12653.250   480906.40    119581.40
   12653.500   477992.40    119496.40
   12653.750   473829.40    119496.40
   12654.000   470067.40    119515.40
   12654.250   464773.40    119609.40
   12654.500   458683.40    119715.40
   12654.750   453728.40    119811.40
   12655.000   446410.40    119899.40
   12655.250   440065.40    119878.40
   12655.500   432019.40    119720.40
   12655.750   426242.40    119610.40
   12656.000   420349.40    119695.40
   12656.250   415946.40    119653.40
   12656.500   414214.40    119676.40
   12656.750   413544.40    119590.40
   12657.000   414091.40    119530.40
   12657.250   416066.40    119500.40
   12657.500   417692.40    119465.40
   12657.750   420385.40    119560.40
   12658.000   422076.40    119614.40
   12658.250   422952.40    119640.40
   12658.500   423005.40    119599.40
   12658.750   422780.40    119633.40
   12659.000   421683.40    119577.40
   12659.250   419941.40    119481.40
   12659.500   418655.40    119460.40
   12659.750   416897.40    119490.40
   12660.000   415508.40    119472.40
   12660.250   413469.40    119426.40
   12660.500   412126.40    119431.40
   12660.750   410346.40    119376.40
   12661.000   409139.40    119394.40
   12661.250   408534.40    119483.40
   12661.500   407448.40    119422.40
   12661.750   406772.40    119373.40
   12662.000   406314.40    119389.40
   12662.250   406022.40    119363.40
   12662.500   405729.40    119309.40
   12662.750   405992.40    119413.40
   12663.000   405995.40    119353.40
   12663.250   406227.40    119364.40
   12663.500   406478.40    119371.40
   12663.750   406739.40    119293.40
   12664.000   407708.40    119373.40
   12664.250   407996.40    119360.40
   12664.500   408786.40    119347.40
   12664.750   410657.40    119738.40
   12665.000   411902.40    119843.40
   12665.250   412675.40    119867.40
   12665.500   413472.40    119856.40
   12665.750   414493.40    119912.40
   12666.000   415013.40    119859.40
   12666.250   415655.40    119827.40
   12666.500   416290.40    119889.40
   12666.750   416665.40    119768.40
   12667.000   417277.40    119819.40
   12667.250   417849.40    119804.40
   12667.500   418338.40    119768.40
   12667.750   418940.40    119803.40
   12668.000   419371.40    119717.40
   12668.250   420027.40    119765.40
   12668.500   420890.40    119836.40
   12668.750   420918.40    119710.40
   12669.000   421571.40    119685.40
   12669.250   421971.40    119625.40
   12669.500   422171.40    119548.40
   12669.750   423254.40    119677.40
   12670.000   423175.40    119561.40
   12670.250   423771.40    119552.40
   12670.500   424230.40    119600.40
   12670.750   424555.40    119575.40
   12671.000   425082.40    119637.40
   12671.250   425158.40    119601.40
   12671.500   425278.40    119583.40
   12671.750   425256.40    119499.40
   12672.000   425514.40    119501.40
   12672.250   425747.40    119532.40
   12672.500   425852.40    119540.40
   12672.750   426123.40    119558.40
   12673.000   426096.40    119523.40
   12673.250   426313.40    119517.40
   12673.500   426131.40    119453.40
   12673.750   426463.40    119507.40
   12674.000   426406.40    119436.40
   12674.250   426167.40    119358.40
   12674.500   426748.40    119468.40
   12674.750   426738.40    119410.40
   12675.000   427111.40    119486.40
   12675.250   427346.40    119500.40
   12675.500   427644.40    119530.40
   12675.750   427619.40    119473.40
   12676.000   427269.40    119344.40
   12676.250   427281.40    119264.40
   12676.500   427738.40    119370.40
   12676.750   428137.40    119426.40
   12677.000   428262.40    119420.40
   12677.250   428583.40    119460.40
   12677.500   428527.40    119426.40
   12677.750   428438.40    119356.40
   12678.000   429661.40    119669.40
   12678.250   431072.40    120049.40
   12678.500   430968.40    119990.40
   12678.750   430738.40    119916.40
   12679.000   430794.40    119908.40
   12679.250   430757.40    119874.40
   12679.500   431154.40    119985.40
   12679.750   431211.40    120018.40
   12680.000   430659.40    119866.40
   12680.250   430371.40    119805.40
   12680.500   430471.40    119816.40
   12680.750   430235.40    119763.40
   12681.000   430633.40    119891.40
   12681.250   430209.40    119807.40
   12681.500   429959.40    119747.40
   12681.750   429938.40    119746.40
   12682.000   429682.40    119697.40
   12682.250   429691.40    119740.40
   12682.500   429742.40    119758.40
   12682.750   429406.40    119703.40
   12683.000   429431.40    119730.40
   12683.250   429186.40    119689.40
   12683.500   429148.40    119687.40
   12683.750   429277.40    119753.40
   12684.000   429067.40    119700.40
   12684.250   428589.40    119584.40
   12684.500   428377.40    119542.40
   12684.750   428532.40    119588.40
   12685.000   428555.40    119592.40
   12685.250   428723.40    119639.40
   12685.500   428721.40    119647.40
   12685.750   428930.40    119675.40
   12686.000   428577.40    119567.40
   12686.250   428356.40    119514.40
   12686.500   428703.40    119585.40
   12686.750   428432.40    119519.40
   12687.000   428928.40    119620.40
   12687.250   428930.40    119607.40
   12687.500   429133.40    119653.40
   12687.750   428932.40    119573.40
   12688.000   428437.40    119415.40
   12688.860   428466.40    119369.40
   12689.730   428629.40    119369.40
   12690.620   429061.40    119483.40
   12691.520   429088.40    119488.40
   12692.430   428823.40    119418.40
   12693.350   428731.40    119370.40
   12694.280   428537.40    119283.40
   12695.230   428447.40    119232.40
   12696.190   428276.40    119181.40
   12697.160   428041.40    119130.40
   12698.140   429452.40    119476.40
   12699.130   429049.40    119339.40
   12700.140   429143.40    119320.40
   12701.160   431633.40    119959.40
   12702.190   431810.40    119957.40
   12703.240   431676.40    119852.40
   12704.290   431822.40    119869.40
   12705.360   432297.40    119954.40
   12706.440   432412.40    119917.40
   12707.530   432584.40    119901.40
   12708.640   432514.40    119784.40
   12709.750   432668.40    119732.40
   12710.880   432858.40    119687.40
   12712.020   433062.40    119629.40
   12713.180   434282.40    119874.40
   12714.340   434319.40    119790.40
   12715.520   434010.40    119610.40
   12716.710   434682.40    119740.40
   12717.910   434796.40    119714.40
   12719.130   435307.40    119787.40
   12720.350   435142.40    119704.40
   12721.590   435062.40    119690.40
   12722.840   435228.40    119743.40
   12724.100   434682.40    119648.40
   12725.380   434286.40    119580.40
   12726.670   434326.40    119649.40
   12727.960   434149.40    119682.40
   12729.280   433881.40    119698.40
   12730.600   433331.40    119600.40
   12731.940   433364.40    119674.40
   12733.280   432878.40    119555.40
   12734.640   433110.40    119629.40
   12736.020   432713.40    119573.40
   12737.400   432596.40    119519.40
   12738.800   431726.40    119279.40
   12740.210   431111.40    119045.40
   12741.630   434525.40    119969.40
   12743.060   433815.40    119698.40
   12744.510   433456.40    119573.40
   12745.960   433642.40    119581.40
   12747.430   433548.40    119483.40
   12748.920   433718.40    119468.40
   12750.410   433932.40    119436.40
   12751.920   434138.40    119431.40
   12753.440   434342.40    119390.40
   12754.970   435008.40    119494.40
   12756.510   435556.40    119517.40
   12758.060   435660.40    119430.40
   12759.630   435664.40    119352.40
   12761.210   436050.40    119348.40
   12762.800   436413.40    119360.40
   12764.410   436868.40    119351.40
   12766.020   437544.40    119376.40
   12767.650   437304.40    119222.40
   12769.290   438034.40    119329.40
   12770.940   437271.40    119044.40
   12772.610   437836.40    119168.40
   12774.290   442089.40    120285.40
   12775.970   441543.40    120126.40
   12777.680   441064.40    119988.40
   12779.390   441015.40    119974.40
   12781.110   440726.40    119944.40
   12782.850   440340.40    119851.40
   12784.600   440236.40    119861.40
   12786.360   440250.40    119938.40
   12788.140   440067.40    119916.40
   12789.920   439349.40    119782.40
   12791.720   439345.40    119799.40
   12793.540   438731.40    119697.40
   12795.360   438367.40    119651.40
   12797.190   438645.40    119746.40
   12799.040   438843.40    119797.40
   12800.900   438395.40    119696.40
   12802.770   436800.40    119220.40
   12804.660   440888.40    120288.40
   12806.550   439820.40    119957.40
   12808.460   439530.40    119836.40
   12810.380   439492.40    119759.40
   12812.310   439784.40    119728.40
   12814.260   440260.40    119763.40
   12816.210   440403.40    119698.40
   12818.180   440630.40    119656.40
   12820.170   440815.40    119625.40
   12822.160   440862.40    119510.40
   12824.170   441985.40    119698.40
   12826.180   442472.40    119731.40
   12828.210   442476.40    119625.40
   12830.250   442261.40    119454.40
   12832.310   442973.40    119532.40
   12834.380   443511.40    119560.40
   12836.460   443711.40    119536.40
   12838.550   443343.40    119298.40
   12840.650   443486.40    119275.40
   12842.760   445473.40    119721.40
   12844.890   445623.40    119713.40
   12847.030   445602.40    119677.40
   12849.180   445643.40    119646.40
   12851.350   445422.40    119544.40
   12853.520   444654.40    119327.40
   12855.710   442231.40    118674.40
   12857.910   447328.40    120038.40
   12860.130   446055.40    119726.40
   12862.350   445332.40    119546.40
   12864.590   445221.40    119500.40
   12866.840   444402.40    119307.40
   12869.100   443021.40    118941.40
   12871.370   445862.40    119684.40
   12873.660   445307.40    119566.40
   12875.960   444684.40    119388.40
   12878.270   446139.40    119749.40
   12880.590   447409.40    120083.40
   12882.920   447587.40    120115.40
   12885.270   447553.40    120044.40
   12887.630   447140.40    119911.40
   12890.000   447340.40    119908.40
   12892.380   448086.40    120061.40
   12894.780   448643.40    120157.40
   12897.190   448383.40    119970.40
   12899.610   448339.40    119874.40
   12902.040   448594.40    119881.40
   12904.480   449244.40    119959.40
   12906.940   449656.40    119976.40
   12909.410   450117.40    119980.40
   12911.890   449806.40    119793.40
   12914.380   450406.40    119868.40
   12916.880   451128.40    119930.40
   12919.400   451090.40    119841.40
   12921.930   451271.40    119800.40
   12924.470   451771.40    119812.40
   12927.030   451541.40    119685.40
   12929.590   451978.40    119722.40
   12932.170   452118.40    119688.40
   12934.760   452181.40    119636.40
   12937.360   453038.40    119817.40
   12939.980   452836.40    119686.40
   12942.610   452443.40    119557.40
   12945.240   453868.40    119903.40
   12947.900   453647.40    119783.40
   12950.560   452934.40    119577.40
   12953.230   453216.40    119591.40
   12955.920   453223.40    119592.40
   12958.620   453556.40    119653.40
   12961.330   453454.40    119603.40
   12964.060   453752.40    119612.40
   12966.790   453554.40    119551.40
   12969.540   453668.40    119569.40
   12972.300   453797.40    119527.40
   12975.080   454381.40    119627.40
   12977.860   454474.40    119634.40
   12980.660   454331.40    119568.40
   12983.470   454548.40    119565.40
   12986.290   454702.40    119547.40
   12989.130   455330.40    119661.40
   12991.970   454360.40    119311.40
   12994.830   455095.40    119453.40
   12997.700   455226.40    119407.40
   13000.580   455856.40    119481.40
   13003.480   456333.40    119530.40
   13006.380   456642.40    119506.40
   13009.300   456747.40    119451.40
   13012.230   456941.40    119406.40
   13015.180   457363.40    119449.40
   13018.130   456655.40    119170.40
   13021.100   460785.40    120156.40
   13024.080   461306.40    120217.40
   13027.070   461152.40    120103.40
   13030.080   460789.40    119897.40
   13033.090   460685.40    119756.40
   13036.120   461398.40    119901.40
   13039.160   461702.40    119899.40
   13042.220   462243.40    119959.40
   13045.280   462465.40    119964.40
   13048.360   462880.40    120016.40
   13051.450   462935.40    119957.40
   13054.550   463151.40    119929.40
   13057.670   463208.40    119900.40
   13060.790   463494.40    119915.40
   13063.930   463675.40    119935.40
   13067.080   463822.40    119888.40
   13070.240   464435.40    119990.40
   13073.420   464430.40    119972.40
   13076.600   464076.40    119784.40
   13079.800   463798.40    119673.40
   13083.010   463913.40    119631.40
   13086.240   464480.40    119761.40
   13089.470   465261.40    119875.40
   13092.720   465126.40    119758.40
   13095.980   464677.40    119590.40
   13099.250   465049.40    119639.40
   13102.540   465488.40    119673.40
   13105.840   466076.40    119759.40
   13109.140   466605.40    119826.40
   13112.470   466776.40    119796.40
   13115.800   467097.40    119786.40
   13119.140   467451.40    119751.40
   13122.500   467525.40    119741.40
   13125.870   467787.40    119708.40
   13129.250   467742.40    119598.40
   13132.650   467958.40    119569.40
   13136.050   468421.40    119615.40
   13139.470   469229.40    119698.40
   13142.900   469470.40    119700.40
   13146.350   469070.40    119533.40
   13149.800   469587.40    119565.40
   13153.270   470020.40    119599.40
   13156.750   470845.40    119727.40
   13160.240   470883.40    119635.40
   13163.740   470697.40    119533.40
   13167.260   471385.40    119632.40
   13170.790   471700.40    119642.40
   13174.330   471864.40    119628.40
   13177.880   471520.40    119457.40
   13181.440   471890.40    119472.40
   13185.020   472088.40    119483.40
   13188.610   472339.40    119469.40
   13192.210   472608.40    119465.40
   13195.820   475154.40    120037.40
   13199.450   475375.40    120015.40
   13203.090   475403.40    119991.40
   13206.740   475416.40    119891.40
   13210.400   476133.40    120003.40
   13214.070   476535.40    120019.40
   13217.760   474542.40    119465.40
   13221.460   478567.40    120386.40
   13225.170   477780.40    120138.40
   13228.890   477211.40    119904.40
   13232.630   477368.40    119837.40
   13236.370   477754.40    119882.40
   13240.130   478028.40    119864.40
   13243.910   478773.40    119968.40
   13247.690   478321.40    119776.40
   13251.490   478123.40    119642.40
   13255.290   478522.40    119698.40
   13259.110   478860.40    119648.40
   13262.950   478731.40    119554.40
   13266.790   477480.40    119163.40
   13270.650   472860.40    117943.40
   13274.520   470808.40    117349.40
   13278.400   478109.40    119090.40
   13282.290   479246.40    119282.40
   13286.200   478831.40    119093.40
   13290.110   481746.40    119710.40
   13294.040   483000.40    119976.40
   13297.990   482039.40    119604.40
   13301.940   482030.40    119573.40
   13305.910   484107.40    119989.40
   13309.890   484369.40    119965.40
   13313.880   484271.40    119892.40
   13317.880   484103.40    119755.40
   13321.900   483856.40    119601.40
   13325.920   484129.40    119572.40
   13329.960   485036.40    119727.40
   13334.010   486315.40    119987.40
   13338.080   486454.40    119939.40
   13342.150   486282.40    119849.40
   13346.240   486441.40    119760.40
   13350.340   486822.40    119764.40
   13354.460   486650.40    119642.40
   13358.580   486930.40    119639.40
   13362.720   486771.40    119534.40
   13366.870   486605.40    119374.40
   13371.030   486970.40    119401.40
   13375.200   487428.40    119454.40
   13379.390   488416.40    119599.40
   13383.580   488883.40    119624.40
   13387.790   489049.40    119576.40
   13392.020   488819.40    119452.40
   13396.250   489182.40    119464.40
   13400.500   489940.40    119564.40
   13404.760   492303.40    120020.40
