#XDI/1.1  GSE/1.0
# Column.1: energy eV
# Column.2: itrans
# Column.3: i0
# Scan.end_time: 2008-04-10 19:52:44
# Scan.start_time: 2008-04-10 19:35:02
# Element.symbol:  Se
# Element.edge:  K
# Facility.Name:  APS
# Beamline.Name:  13-BM-D
# Beamline.xray_source:  bending magnet
# Mono.dspacing:  3.13555
# Mono.name: Si 111
# Beamline.Storage_Ring_Current: 102.474 || S:SRcurrentAI.VAL
# Beamline.FOE_Mono_angle_readback: 9.0947 || 13BMA:m17.RBV
# Beamline.Mono_Energy_drive_val: 12508.0000 || 13BMA:E:Energy.VAL
# Beamline.Mono_Energy_readback: 12503.0242 || 13BMA:E:E_RBV
# Beamline.Mono_Beam_Offset: 20.0000 || 13BMA:E:height.VAL
# Beamline.I0_sensitivity_value: 5 || 13BMD:A3sens_num.VAL
# Beamline.I0_sensitivity_value: nA/V || 13BMD:A3sens_unit.VAL
# Beamline.I1_sensitivity_value: 20 || 13BMD:A2sens_num.VAL
# Beamline.I1_sensitivity_value: nA/V || 13BMD:A2sens_unit.VAL
# Beamline.FOE_Mono_Yout: 10.4439 || 13BMA:m10.VAL
# Beamline.FOE_Mono_Yin: 10.6474 || 13BMA:m11.VAL
# Beamline.FOE_Mono_Yup: 9.7047 || 13BMA:m12.VAL
# Beamline.FOE_Mono_Cage_Y: 0.000 || 13BMA:m13.VAL
# Beamline.FOE_Mono_Z: 64.134 || 13BMA:m14.VAL
# Beamline.FOE_Mono_angle: 9.0947 || 13BMA:m17.VAL
# Beamline.BMD_Horiz_Width: 5.000 || 13BMD:BMDHt2.C
# Beamline.BMD_Horiz_Center: -2.000 || 13BMD:BMDHt2.D
# Beamline.BMD_Vertical_Width: 0.500 || 13BMD:BMDVt2.C
# Beamline.BMD_Vertical_Center: -19.950 || 13BMD:BMDVt2.D
# Beamline.Sample_X: 326.174 || 13BMD:m70.VAL
# Beamline.Sample_Z__focus: 0.800 || 13BMD:m33.VAL
# Beamline.Sample_Y__height: 63.715 || 13BMD:m34.VAL
# ScanParameters.Start: Scan.Member: Value
# ScanParameters.E0: 12658.0
# ScanParameters.Legend: Start       Stop       Step       Npts       Time   Kspace?
# ScanParameters.Region1: -150.00    -10.000     5.0000     29.000     2.0000   0
# ScanParameters.Region2: -10.000     30.000    0.25000     161.00     2.0000   0
# ScanParameters.Region3: 2.8061     14.000   0.039978     281.00     2.0000   1
# ScanParameters.End: here
#-------------------------
#  energy  itrans  i0
   12508.000   503069.40    122390.40 
   12513.000   497653.40    120989.40 
   12518.000   495665.40    120451.40 
   12523.000   493892.40    119848.40 
   12528.000   495084.40    120054.40 
   12533.000   496279.40    120222.40 
   12538.000   495508.40    119933.40 
   12543.000   494602.40    119622.40 
   12548.000   495088.40    119647.40 
   12553.000   495622.40    119703.40 
   12558.000   496063.40    119659.40 
   12563.000   495764.40    119511.40 
   12568.000   496566.40    119612.40 
   12573.000   498083.40    119869.40 
   12578.000   497772.40    119698.40 
   12583.000   497477.40    119539.40 
   12588.000   497318.40    119377.40 
   12593.000   500575.40    120076.40 
   12598.000   499933.40    119854.40 
   12603.000   498876.40    119512.40 
   12608.000   500329.40    119734.40 
   12613.000   501014.40    119815.40 
   12618.000   500371.40    119615.40 
   12623.000   499899.40    119437.40 
   12628.000   500786.40    119572.40 
   12633.000   502074.40    119877.40 
   12638.000   501168.40    119641.40 
   12643.000   500070.40    119509.40 
   12648.000   498035.40    119481.40 
   12648.250   498727.40    119686.40 
   12648.500   499345.40    119914.40 
   12648.750   499279.40    119967.40 
   12649.000   499617.40    120095.40 
   12649.250   499447.40    120115.40 
   12649.500   498783.40    120033.40 
   12649.750   497931.40    119907.40 
   12650.000   497740.40    119939.40 
   12650.250   497349.40    119945.40 
   12650.500   497608.40    120119.40 
   12650.750   497178.40    120184.40 
   12651.000   496378.40    120063.40 
   12651.250   495058.40    119961.40 
   12651.500   493691.40    119852.40 
   12651.750   492939.40    119824.40 
   12652.000   491688.40    119826.40 
   12652.250   490582.40    119790.40 
   12652.500   488633.40    119774.40 
   12652.750   486924.40    119698.40 
   12653.000   484978.40    119781.40 
   12653.250   481552.40    119711.40 
   12653.500   479246.40    119753.40 
   12653.750   474844.40    119643.40 
   12654.000   470660.40    119575.40 
   12654.250   465115.40    119621.40 
   12654.500   459653.40    119879.40 
   12654.750   454543.40    119933.40 
   12655.000   446726.40    119911.40 
   12655.250   440717.40    119898.40 
   12655.500   432361.40    119744.40 
   12655.750   426821.40    119673.40 
   12656.000   420816.40    119758.40 
   12656.250   416401.40    119714.40 
   12656.500   414468.40    119741.40 
   12656.750   413626.40    119627.40 
   12657.000   414390.40    119645.40 
   12657.250   416596.40    119684.40 
   12657.500   418207.40    119615.40 
   12657.750   420415.40    119602.40 
   12658.000   422105.40    119619.40 
   12658.250   423086.40    119670.40 
   12658.500   423039.40    119596.40 
   12658.750   422833.40    119603.40 
   12659.000   421708.40    119570.40 
   12659.250   419950.40    119472.40 
   12659.500   418742.40    119468.40 
   12659.750   416859.40    119430.40 
   12660.000   415892.40    119538.40 
   12660.250   413964.40    119531.40 
   12660.500   412701.40    119556.40 
   12660.750   411053.40    119557.40 
   12661.000   409554.40    119526.40 
   12661.250   408825.40    119555.40 
   12661.500   407663.40    119454.40 
   12661.750   407114.40    119496.40 
   12662.000   406489.40    119438.40 
   12662.250   406325.40    119453.40 
   12662.500   405984.40    119373.40 
   12662.750   406016.40    119399.40 
   12663.000   406309.40    119469.40 
   12663.250   406331.40    119389.40 
   12663.500   406370.40    119318.40 
   12663.750   407129.40    119391.40 
   12664.000   408138.40    119512.40 
   12664.250   408558.40    119465.40 
   12664.500   408915.40    119362.40 
   12664.750   408887.40    119176.40 
   12665.000   409962.40    119256.40 
   12665.250   411060.40    119393.40 
   12665.500   412143.40    119437.40 
   12665.750   412892.40    119423.40 
   12666.000   413064.40    119288.40 
   12666.250   413759.40    119282.40 
   12666.500   414380.40    119341.40 
   12666.750   416985.40    119872.40 
   12667.000   417906.40    119986.40 
   12667.250   418453.40    119985.40 
   12667.500   418894.40    119946.40 
   12667.750   418952.40    119795.40 
   12668.000   419485.40    119739.40 
   12668.250   420000.40    119771.40 
   12668.500   420787.40    119781.40 
   12668.750   421582.40    119847.40 
   12669.000   422427.40    119922.40 
   12669.250   422976.40    119892.40 
   12669.500   423088.40    119796.40 
   12669.750   423379.40    119709.40 
   12670.000   424134.40    119766.40 
   12670.250   424627.40    119790.40 
   12670.500   425034.40    119813.40 
   12670.750   425306.40    119769.40 
   12671.000   425334.40    119694.40 
   12671.250   425365.40    119624.40 
   12671.500   426085.40    119752.40 
   12671.750   426214.40    119740.40 
   12672.000   426144.40    119668.40 
   12672.250   426370.40    119686.40 
   12672.500   426304.40    119610.40 
   12672.750   426522.40    119623.40 
   12673.000   426462.40    119579.40 
   12673.250   426700.40    119585.40 
   12673.500   426787.40    119581.40 
   12673.750   426959.40    119599.40 
   12674.000   427090.40    119615.40 
   12674.250   427144.40    119570.40 
   12674.500   427147.40    119552.40 
   12674.750   427065.40    119495.40 
   12675.000   427540.40    119533.40 
   12675.250   427492.40    119524.40 
   12675.500   427642.40    119511.40 
   12675.750   427701.40    119472.40 
   12676.000   427407.40    119355.40 
   12676.250   427622.40    119313.40 
   12676.500   427998.40    119403.40 
   12676.750   428453.40    119496.40 
   12677.000   428562.40    119467.40 
   12677.250   428913.40    119511.40 
   12677.500   429118.40    119540.40 
   12677.750   429073.40    119495.40 
   12678.000   429138.40    119455.40 
   12678.250   429292.40    119485.40 
   12678.500   429182.40    119433.40 
   12678.750   428990.40    119391.40 
   12679.000   428971.40    119366.40 
   12679.250   429342.40    119465.40 
   12679.500   429040.40    119410.40 
   12679.750   429256.40    119441.40 
   12680.000   431389.40    120027.40 
   12680.250   431232.40    119969.40 
   12680.500   431296.40    120000.40 
   12680.750   430936.40    119922.40 
   12681.000   430990.40    119956.40 
   12681.250   430963.40    119972.40 
   12681.500   430867.40    119967.40 
   12681.750   430753.40    119921.40 
   12682.000   430786.40    120001.40 
   12682.250   430394.40    119916.40 
   12682.500   430205.40    119871.40 
   12682.750   430177.40    119874.40 
   12683.000   429992.40    119869.40 
   12683.250   429843.40    119838.40 
   12683.500   429532.40    119768.40 
   12683.750   429207.40    119691.40 
   12684.000   429512.40    119816.40 
   12684.250   429663.40    119857.40 
   12684.500   429820.40    119894.40 
   12684.750   429713.40    119906.40 
   12685.000   429699.40    119869.40 
   12685.250   429495.40    119856.40 
   12685.500   429421.40    119826.40 
   12685.750   429170.40    119750.40 
   12686.000   429112.40    119699.40 
   12686.250   429385.40    119779.40 
   12686.500   429636.40    119818.40 
   12686.750   429594.40    119819.40 
   12687.000   429489.40    119764.40 
   12687.250   429369.40    119709.40 
   12687.500   429260.40    119650.40 
   12687.750   429313.40    119653.40 
   12688.000   429264.40    119610.40 
   12688.860   429553.40    119649.40 
   12689.730   429947.40    119680.40 
   12690.620   429796.40    119661.40 
   12691.520   429658.40    119617.40 
   12692.430   429508.40    119555.40 
   12693.350   429531.40    119549.40 
   12694.280   429384.40    119492.40 
   12695.230   429166.40    119443.40 
   12696.190   428954.40    119341.40 
   12697.160   428719.40    119265.40 
   12698.140   430297.40    119716.40 
   12699.130   430288.40    119642.40 
   12700.140   430098.40    119564.40 
   12701.160   430322.40    119579.40 
   12702.190   430261.40    119529.40 
   12703.240   430469.40    119497.40 
   12704.290   430364.40    119423.40 
   12705.360   430649.40    119444.40 
   12706.440   430365.40    119344.40 
   12707.530   430563.40    119320.40 
   12708.640   432464.40    119761.40 
   12709.750   433796.40    120041.40 
   12710.880   434177.40    120035.40 
   12712.020   434214.40    119901.40 
   12713.180   435001.40    120032.40 
   12714.340   435324.40    120017.40 
   12715.520   435366.40    119959.40 
   12716.710   435399.40    119904.40 
   12717.910   435882.40    119979.40 
   12719.130   435882.40    119935.40 
   12720.350   436094.40    119912.40 
   12721.590   435833.40    119844.40 
   12722.840   435917.40    119900.40 
   12724.100   435673.40    119875.40 
   12725.380   435585.40    119898.40 
   12726.670   434854.40    119791.40 
   12727.960   434683.40    119817.40 
   12729.280   434582.40    119855.40 
   12730.600   434381.40    119875.40 
   12731.940   434114.40    119840.40 
   12733.280   433820.40    119834.40 
   12734.640   433821.40    119833.40 
   12736.020   433553.40    119760.40 
   12737.400   433319.40    119705.40 
   12738.800   433130.40    119637.40 
   12740.210   432147.40    119306.40 
   12741.630   434955.40    120053.40 
   12743.060   434130.40    119777.40 
   12744.510   434591.40    119880.40 
   12745.960   434854.40    119887.40 
   12747.430   434559.40    119778.40 
   12748.920   434617.40    119702.40 
   12750.410   434540.40    119610.40 
   12751.920   435247.40    119682.40 
   12753.440   435492.40    119683.40 
   12754.970   435926.40    119701.40 
   12756.510   436067.40    119617.40 
   12758.060   436247.40    119607.40 
   12759.630   436599.40    119593.40 
   12761.210   437177.40    119638.40 
   12762.800   437299.40    119551.40 
   12764.410   437724.40    119541.40 
   12766.020   438081.40    119493.40 
   12767.650   438582.40    119542.40 
   12769.290   439029.40    119561.40 
   12770.940   438575.40    119399.40 
   12772.610   436768.40    118865.40 
   12774.290   440171.40    119727.40 
   12775.970   440103.40    119729.40 
   12777.680   439638.40    119571.40 
   12779.390   439609.40    119593.40 
   12781.110   438780.40    119351.40 
   12782.850   438403.40    119320.40 
   12784.600   438602.40    119410.40 
   12786.360   440560.40    119998.40 
   12788.140   440587.40    120037.40 
   12789.920   440195.40    119988.40 
   12791.720   439728.40    119922.40 
   12793.540   439638.40    119939.40 
   12795.360   439227.40    119857.40 
   12797.190   439148.40    119867.40 
   12799.040   439334.40    119902.40 
   12800.900   439354.40    119902.40 
   12802.770   436992.40    119241.40 
   12804.660   441499.40    120427.40 
   12806.550   440605.40    120150.40 
   12808.460   440390.40    120023.40 
   12810.380   439896.40    119817.40 
   12812.310   440169.40    119817.40 
   12814.260   440658.40    119862.40 
   12816.210   440648.40    119777.40 
   12818.180   441176.40    119834.40 
   12820.170   441590.40    119834.40 
   12822.160   441890.40    119800.40 
   12824.170   442670.40    119903.40 
   12826.180   442828.40    119806.40 
   12828.210   442857.40    119728.40 
   12830.250   443435.40    119758.40 
   12832.310   443992.40    119784.40 
   12834.380   444214.40    119778.40 
   12836.460   444732.40    119756.40 
   12838.550   444376.40    119570.40 
   12840.650   444619.40    119552.40 
   12842.760   446778.40    120075.40 
   12844.890   446096.40    119840.40 
   12847.030   446057.40    119771.40 
   12849.180   446291.40    119788.40 
   12851.350   446295.40    119762.40 
   12853.520   445794.40    119624.40 
   12855.710   442609.40    118824.40 
   12857.910   447536.40    120096.40 
   12860.130   446764.40    119898.40 
   12862.350   446168.40    119779.40 
   12864.590   445809.40    119636.40 
   12866.840   445307.40    119512.40 
   12869.100   443455.40    119005.40 
   12871.370   446806.40    119920.40 
   12873.660   446118.40    119734.40 
   12875.960   445206.40    119503.40 
   12878.270   445145.40    119507.40 
   12880.590   445437.40    119543.40 
   12882.920   445673.40    119568.40 
   12885.270   445579.40    119510.40 
   12887.630   445620.40    119486.40 
   12890.000   445093.40    119285.40 
   12892.380   446167.40    119516.40 
   12894.780   446679.40    119581.40 
   12897.190   449098.40    120151.40 
   12899.610   448936.40    120027.40 
   12902.040   449151.40    119988.40 
   12904.480   449772.40    120059.40 
   12906.940   450426.40    120137.40 
   12909.410   450925.40    120167.40 
   12911.890   450704.40    120013.40 
   12914.380   450952.40    119968.40 
   12916.880   451387.40    119973.40 
   12919.400   451739.40    119984.40 
   12921.930   452330.40    120066.40 
   12924.470   452717.40    120090.40 
   12927.030   452402.40    119908.40 
   12929.590   452529.40    119818.40 
   12932.170   453024.40    119891.40 
   12934.760   453298.40    119893.40 
   12937.360   453779.40    119981.40 
   12939.980   453878.40    119955.40 
   12942.610   453428.40    119778.40 
   12945.240   455058.40    120144.40 
   12947.900   454656.40    120039.40 
   12950.560   454104.40    119823.40 
   12953.230   454073.40    119779.40 
   12955.920   454588.40    119892.40 
   12958.620   454513.40    119857.40 
   12961.330   454415.40    119795.40 
   12964.060   454600.40    119846.40 
   12966.790   454291.40    119727.40 
   12969.540   454435.40    119708.40 
   12972.300   454665.40    119719.40 
   12975.080   454826.40    119740.40 
   12977.860   455349.40    119830.40 
   12980.660   455157.40    119744.40 
   12983.470   455152.40    119715.40 
   12986.290   455093.40    119637.40 
   12989.130   455644.40    119715.40 
   12991.970   454916.40    119450.40 
   12994.830   456056.40    119676.40 
   12997.700   456033.40    119591.40 
   13000.580   456666.40    119656.40 
   13003.480   457397.40    119790.40 
   13006.380   457193.40    119648.40 
   13009.300   457518.40    119655.40 
   13012.230   457600.40    119584.40 
   13015.180   457568.40    119491.40 
   13018.130   457211.40    119341.40 
   13021.100   459422.40    119783.40 
   13024.080   459992.40    119836.40 
   13027.070   460015.40    119743.40 
   13030.080   459973.40    119690.40 
   13033.090   459983.40    119594.40 
   13036.120   460498.40    119656.40 
   13039.160   460766.40    119619.40 
   13042.220   460847.40    119571.40 
   13045.280   461041.40    119563.40 
   13048.360   461371.40    119631.40 
   13051.450   461820.40    119625.40 
   13054.550   461327.40    119454.40 
   13057.670   461411.40    119417.40 
   13060.790   461946.40    119515.40 
   13063.930   462120.40    119517.40 
   13067.080   462368.40    119501.40 
   13070.240   462661.40    119525.40 
   13073.420   462927.40    119540.40 
   13076.600   463155.40    119566.40 
   13079.800   462720.40    119381.40 
   13083.010   462993.40    119388.40 
   13086.240   463692.40    119527.40 
   13089.470   463732.40    119465.40 
   13092.720   463748.40    119380.40 
   13095.980   463727.40    119304.40 
   13099.250   464430.40    119454.40 
   13102.540   464407.40    119354.40 
   13105.840   464424.40    119292.40 
   13109.140   464598.40    119270.40 
   13112.470   464785.40    119262.40 
   13115.800   465273.40    119276.40 
   13119.140   465511.40    119284.40 
   13122.500   465764.40    119277.40 
   13125.870   465972.40    119206.40 
   13129.250   466290.40    119232.40 
   13132.650   466465.40    119194.40 
   13136.050   466908.40    119241.40 
   13139.470   467256.40    119228.40 
   13142.900   467645.40    119242.40 
   13146.350   468000.40    119244.40 
   13149.800   467835.40    119111.40 
   13153.270   468271.40    119135.40 
   13156.750   468326.40    119043.40 
   13160.240   468544.40    119064.40 
   13163.740   468720.40    119021.40 
   13167.260   469413.40    119120.40 
   13170.790   469684.40    119126.40 
   13174.330   469615.40    119045.40 
   13177.880   470076.40    119056.40 
   13181.440   470242.40    119018.40 
   13185.020   470701.40    119099.40 
   13188.610   470693.40    119018.40 
   13192.210   470857.40    118977.40 
   13195.820   471325.40    119054.40 
   13199.450   472139.40    119185.40 
   13203.090   472056.40    119109.40 
   13206.740   472326.40    119100.40 
   13210.400   472360.40    119029.40 
   13214.070   472133.40    118923.40 
   13217.760   470545.40    118444.40 
   13221.460   475361.40    119582.40 
   13225.170   476573.40    119807.40 
   13228.890   475871.40    119556.40 
   13232.630   475780.40    119453.40 
   13236.370   476501.40    119568.40 
   13240.130   476576.40    119488.40 
   13243.910   476929.40    119498.40 
   13247.690   476642.40    119338.40 
   13251.490   476527.40    119264.40 
   13255.290   477229.40    119320.40 
   13259.110   477556.40    119292.40 
   13262.950   477271.40    119169.40 
   13266.790   476097.40    118791.40 
   13270.650   472109.40    117713.40 
   13274.520   469697.40    117036.40 
   13278.400   476865.40    118759.40 
   13282.290   478242.40    118997.40 
   13286.200   477932.40    118853.40 
   13290.110   480362.40    119365.40 
   13294.040   481283.40    119528.40 
   13297.990   480205.40    119173.40 
   13301.940   480316.40    119123.40 
   13305.910   482262.40    119502.40 
   13309.890   482614.40    119521.40 
   13313.880   483277.40    119604.40 
   13317.880   483312.40    119560.40 
   13321.900   483062.40    119359.40 
   13325.920   482391.40    119159.40 
   13329.960   483135.40    119227.40 
   13334.010   484353.40    119468.40 
   13338.080   485172.40    119597.40 
   13342.150   484944.40    119474.40 
   13346.240   485102.40    119409.40 
   13350.340   485704.40    119459.40 
   13354.460   485833.40    119433.40 
   13358.580   485506.40    119274.40 
   13362.720   485465.40    119159.40 
   13366.870   485924.40    119183.40 
