#XDI/1.1  GSE/1.0
# Column.1: energy eV
# Column.2: itrans
# Column.3: i0
# Scan.end_time: 2008-04-10 20:46:53
# Scan.start_time: 2008-04-10 20:29:11
# Element.symbol:  Se
# Element.edge:  K
# Mono.d_spacing:  3.13555
# Mono.name: Si 111
# Sample.temperature: room temperature
# Sample.formula: HgSe
# Sample.name: mercury selenide
# Sample.prep: powder on tape, many layers
# Facility.Name:  APS
# Beamline.Name:  13-BM-D
# Beamline.xray_source:  bending magnet
# Beamline.Storage_Ring_Current: 102.304
# Beamline.I0: N2, 5 nA/V
# Beamline.I1: N2, 20 nA/V
# ScanParameters.E0: 12658.0
# ScanParameters.Legend: Start       Stop       Step       Npts       Time   Kspace?
# ScanParameters.Region1: -150.00    -10.000     5.0000     29.000     2.0000   0
# ScanParameters.Region2: -10.000     30.000    0.25000     161.00     2.0000   0
# ScanParameters.Region3: 2.8061     14.000   0.039978     281.00     2.0000   1
#-------------------------
#  energy  itrans  i0
   12508.000    92794.40    120921.40
   12513.000    92279.40    120412.40
   12518.000    92186.40    120440.40
   12523.000    91853.40    119946.40
   12528.000    91862.40    119569.40
   12533.000    91870.40    119249.40
   12538.000    92117.40    119180.40
   12543.000    92625.40    119511.40
   12548.000    92954.40    119545.40
   12553.000    93293.40    119574.40
   12558.000    93656.40    119702.40
   12563.000    93901.40    119693.40
   12568.000    93978.40    119438.40
   12573.000    93953.40    119182.40
   12578.000    94313.40    119505.40
   12583.000    94447.40    119593.40
   12588.000    94136.40    119182.40
   12593.000    94368.40    119438.40
   12598.000    94362.40    119466.40
   12603.000    94330.40    119543.40
   12608.000    94494.40    119613.40
   12613.000    94440.40    119402.40
   12618.000    94527.40    119447.40
   12623.000    94684.40    119472.40
   12628.000    94683.40    119334.40
   12633.000    94745.40    119280.40
   12638.000    94790.40    119365.40
   12643.000    94552.40    119484.40
   12648.000    93441.40    119371.40
   12648.250    93530.40    119661.40
   12648.500    93520.40    119822.40
   12648.750    93406.40    119775.40
   12649.000    93237.40    119757.40
   12649.250    93107.40    119733.40
   12649.500    92914.40    119747.40
   12649.750    92804.40    119756.40
   12650.000    92606.40    119773.40
   12650.250    92398.40    119785.40
   12650.500    92154.40    119748.40
   12650.750    91884.40    119701.40
   12651.000    91608.40    119654.40
   12651.250    91234.40    119638.40
   12651.500    90875.40    119734.40
   12651.750    90484.40    119607.40
   12652.000    89920.40    119575.40
   12652.250    89856.40    120096.40
   12652.500    89331.40    120297.40
   12652.750    88705.40    120256.40
   12653.000    87708.40    120077.40
   12653.250    86558.40    119978.40
   12653.500    85696.40    120114.40
   12653.750    84179.40    120017.40
   12654.000    82902.40    120073.40
   12654.250    80952.40    120054.40
   12654.500    78769.40    120184.40
   12654.750    76770.40    120224.40
   12655.000    73745.40    120387.40
   12655.250    71059.40    120371.40
   12655.500    67115.40    120307.40
   12655.750    63919.40    120192.40
   12656.000    59430.40    120132.40
   12656.250    55289.40    120058.40
   12656.500    52456.40    120056.40
   12656.750    49396.40    120114.40
   12657.000    47919.40    120057.40
   12657.250    46632.40    120001.40
   12657.500    46263.40    119940.40
   12657.750    46507.40    120021.40
   12658.000    47199.40    120030.40
   12658.250    47937.40    119960.40
   12658.500    48987.40    119912.40
   12658.750    49764.40    119947.40
   12659.000    50669.40    119971.40
   12659.250    51326.40    119955.40
   12659.500    51655.40    119885.40
   12659.750    51956.40    119883.40
   12660.000    52088.40    119927.40
   12660.250    52167.40    119955.40
   12660.500    52152.40    119893.40
   12660.750    52139.40    119797.40
   12661.000    52150.40    119845.40
   12661.250    52153.40    119877.40
   12661.500    52208.40    119853.40
   12661.750    52324.40    119906.40
   12662.000    52503.40    119816.40
   12662.250    52720.40    119796.40
   12662.500    53103.40    119796.40
   12662.750    53586.40    119772.40
   12663.000    53967.40    119714.40
   12663.250    54608.40    119748.40
   12663.500    55069.40    119726.40
   12663.750    55778.40    119823.40
   12664.000    56477.40    119760.40
   12664.250    57010.40    119825.40
   12664.500    57737.40    119755.40
   12664.750    58283.40    119698.40
   12665.000    59028.40    119665.40
   12665.250    59608.40    119748.40
   12665.500    60399.40    119963.40
   12665.750    61173.40    120342.40
   12666.000    61477.40    120304.40
   12666.250    61803.40    120369.40
   12666.500    61900.40    120277.40
   12666.750    61942.40    120239.40
   12667.000    61898.40    120265.40
   12667.250    61733.40    120274.40
   12667.500    61494.40    120218.40
   12667.750    61270.40    120228.40
   12668.000    60936.40    120211.40
   12668.250    60663.40    120165.40
   12668.500    60285.40    120064.40
   12668.750    60072.40    120129.40
   12669.000    59786.40    120243.40
   12669.250    59545.40    120303.40
   12669.500    59364.40    120265.40
   12669.750    59176.40    120205.40
   12670.000    59058.40    120125.40
   12670.250    59020.40    120129.40
   12670.500    59056.40    120178.40
   12670.750    59140.40    120153.40
   12671.000    59274.40    120193.40
   12671.250    59380.40    120145.40
   12671.500    59603.40    120149.40
   12671.750    59739.40    120073.40
   12672.000    59984.40    120052.40
   12672.250    60220.40    120166.40
   12672.500    60455.40    120116.40
   12672.750    60648.40    120069.40
   12673.000    60844.40    120120.40
   12673.250    61020.40    120023.40
   12673.500    61175.40    120092.40
   12673.750    61321.40    120045.40
   12674.000    61428.40    120084.40
   12674.250    61498.40    120015.40
   12674.500    61532.40    119968.40
   12674.750    61559.40    119963.40
   12675.000    61563.40    119941.40
   12675.250    61533.40    119945.40
   12675.500    61473.40    119947.40
   12675.750    61417.40    119961.40
   12676.000    61295.40    119944.40
   12676.250    61198.40    120008.40
   12676.500    61043.40    119896.40
   12676.750    60872.40    119793.40
   12677.000    60761.40    119819.40
   12677.250    60633.40    119880.40
   12677.500    60522.40    119862.40
   12677.750    60372.40    119931.40
   12678.000    60214.40    119945.40
   12678.250    60086.40    119903.40
   12678.500    59953.40    120025.40
   12678.750    59810.40    119907.40
   12679.000    59651.40    119840.40
   12679.250    59569.40    119859.40
   12679.500    59416.40    119806.40
   12679.750    59358.40    119793.40
   12680.000    59283.40    119748.40
   12680.250    59223.40    119724.40
   12680.500    59204.40    119748.40
   12680.750    59173.40    119706.40
   12681.000    59170.40    119760.40
   12681.250    59165.40    119739.40
   12681.500    59160.40    119779.40
   12681.750    59149.40    119741.40
   12682.000    59117.40    119715.40
   12682.250    59103.40    119697.40
   12682.500    59075.40    119676.40
   12682.750    59053.40    119687.40
   12683.000    59009.40    119625.40
   12683.250    59010.40    119658.40
   12683.500    58981.40    119703.40
   12683.750    58903.40    119583.40
   12684.000    58884.40    119600.40
   12684.250    58863.40    119664.40
   12684.500    58826.40    119616.40
   12684.750    58789.40    119586.40
   12685.000    58763.40    119579.40
   12685.250    58732.40    119549.40
   12685.500    58707.40    119514.40
   12685.750    58730.40    119571.40
   12686.000    58689.40    119496.40
   12686.250    58720.40    119549.40
   12686.500    58710.40    119495.40
   12686.750    58748.40    119519.40
   12687.000    58773.40    119568.40
   12687.250    58758.40    119476.40
   12687.500    58781.40    119454.40
   12687.750    58814.40    119452.40
   12688.000    58828.40    119428.40
   12688.860    58940.40    119396.40
   12689.730    59070.40    119334.40
   12690.620    59263.40    119393.40
   12691.520    59464.40    119405.40
   12692.430    59665.40    119444.40
   12693.350    59841.40    119382.40
   12694.280    60053.40    119380.40
   12695.230    60216.40    119239.40
   12696.190    60338.40    119088.40
   12697.160    60494.40    119101.40
   12698.140    60965.40    119588.40
   12699.130    61163.40    119459.40
   12700.140    61299.40    119287.40
   12701.160    61364.40    119170.40
   12702.190    61468.40    119199.40
   12703.240    61500.40    119215.40
   12704.290    61693.40    119673.40
   12705.360    61734.40    119880.40
   12706.440    61664.40    119875.40
   12707.530    61523.40    119840.40
   12708.640    61374.40    119736.40
   12709.750    61205.40    119638.40
   12710.880    61083.40    119692.40
   12712.020    60964.40    119741.40
   12713.180    60868.40    119792.40
   12714.340    60760.40    119787.40
   12715.520    60685.40    119787.40
   12716.710    60586.40    119641.40
   12717.910    60534.40    119596.40
   12719.130    60506.40    119539.40
   12720.350    60620.40    119690.40
   12721.590    60690.40    119662.40
   12722.840    60816.40    119767.40
   12724.100    60904.40    119664.40
   12725.380    60992.40    119563.40
   12726.670    61100.40    119605.40
   12727.960    61216.40    119632.40
   12729.280    61286.40    119613.40
   12730.600    61360.40    119651.40
   12731.940    61407.40    119512.40
   12733.280    61467.40    119467.40
   12734.640    61500.40    119376.40
   12736.020    61598.40    119468.40
   12737.400    61665.40    119488.40
   12738.800    61553.40    119260.40
   12740.210    61416.40    118966.40
   12741.630    62010.40    119981.40
   12743.060    61988.40    119749.40
   12744.510    61948.40    119468.40
   12745.960    61974.40    119373.40
   12747.430    62062.40    119402.40
   12748.920    62155.40    119492.40
   12750.410    62175.40    119449.40
   12751.920    62205.40    119469.40
   12753.440    62204.40    119410.40
   12754.970    62200.40    119337.40
   12756.510    62151.40    119235.40
   12758.060    62171.40    119273.40
   12759.630    62246.40    119410.40
   12761.210    62242.40    119417.40
   12762.800    62215.40    119325.40
   12764.410    62202.40    119274.40
   12766.020    62240.40    119337.40
   12767.650    62248.40    119314.40
   12769.290    62298.40    119354.40
   12770.940    62179.40    119129.40
   12772.610    61871.40    118570.40
   12774.290    62472.40    119640.40
   12775.970    62515.40    119514.40
   12777.680    62574.40    119539.40
   12779.390    62837.40    119923.40
   12781.110    62895.40    119928.40
   12782.850    62908.40    119862.40
   12784.600    62915.40    119742.40
   12786.360    62948.40    119748.40
   12788.140    62981.40    119728.40
   12789.920    63077.40    119893.40
   12791.720    63078.40    119843.40
   12793.540    63062.40    119741.40
   12795.360    63098.40    119756.40
   12797.190    63138.40    119814.40
   12799.040    63148.40    119776.40
   12800.900    63058.40    119526.40
   12802.770    62683.40    118869.40
   12804.660    63485.40    120204.40
   12806.550    63427.40    119958.40
   12808.460    63452.40    119838.40
   12810.380    63476.40    119679.40
   12812.310    63509.40    119561.40
   12814.260    63585.40    119492.40
   12816.210    63734.40    119623.40
   12818.180    63837.40    119620.40
   12820.170    63870.40    119499.40
   12822.160    63911.40    119367.40
   12824.170    64068.40    119534.40
   12826.180    64204.40    119645.40
   12828.210    64272.40    119664.40
   12830.250    64282.40    119526.40
   12832.310    64263.40    119385.40
   12834.380    64328.40    119452.40
   12836.460    64320.40    119441.40
   12838.550    64177.40    119212.40
   12840.650    64178.40    119217.40
   12842.760    64423.40    119678.40
   12844.890    64338.40    119473.40
   12847.030    64310.40    119428.40
   12849.180    64310.40    119427.40
   12851.350    64300.40    119375.40
   12853.520    64340.40    119413.40
   12855.710    63899.40    118722.40
   12857.910    64701.40    119965.40
   12860.130    64617.40    119657.40
   12862.350    64602.40    119485.40
   12864.590    64608.40    119367.40
   12866.840    64521.40    119152.40
   12869.100    64303.40    118628.40
   12871.370    64847.40    119515.40
   12873.660    64895.40    119449.40
   12875.960    64932.40    119353.40
   12878.270    65049.40    119366.40
   12880.590    65084.40    119250.40
   12882.920    65185.40    119278.40
   12885.270    65281.40    119246.40
   12887.630    65723.40    119977.40
   12890.000    65802.40    119942.40
   12892.380    65886.40    119861.40
   12894.780    65971.40    119855.40
   12897.190    66074.40    119859.40
   12899.610    66208.40    119917.40
   12902.040    66244.40    119808.40
   12904.480    66338.40    119779.40
   12906.940    66399.40    119861.40
   12909.410    66456.40    119851.40
   12911.890    66523.40    119835.40
   12914.380    66534.40    119804.40
   12916.880    66591.40    119826.40
   12919.400    66609.40    119771.40
   12921.930    66622.40    119732.40
   12924.470    66644.40    119682.40
   12927.030    66670.40    119645.40
   12929.590    66730.40    119707.40
   12932.170    66801.40    119811.40
   12934.760    66746.40    119643.40
   12937.360    66841.40    119712.40
   12939.980    66912.40    119716.40
   12942.610    66873.40    119550.40
   12945.240    67043.40    119704.40
   12947.900    67115.40    119662.40
   12950.560    67204.40    119688.40
   12953.230    67311.40    119757.40
   12955.920    67372.40    119713.40
   12958.620    67421.40    119650.40
   12961.330    67485.40    119550.40
   12964.060    67549.40    119513.40
   12966.790    67589.40    119411.40
   12969.540    67732.40    119506.40
   12972.300    67876.40    119622.40
   12975.080    67981.40    119659.40
   12977.860    68038.40    119592.40
   12980.660    68130.40    119651.40
   12983.470    68156.40    119485.40
   12986.290    68280.40    119530.40
   12989.130    68320.40    119467.40
   12991.970    68240.40    119220.40
   12994.830    68542.40    119592.40
   12997.700    68576.40    119478.40
   13000.580    68641.40    119480.40
   13003.480    68717.40    119474.40
   13006.380    68821.40    119557.40
   13009.300    68862.40    119508.40
   13012.230    68879.40    119408.40
   13015.180    68937.40    119396.40
   13018.130    68924.40    119299.40
   13021.100    69108.40    119407.40
   13024.080    69234.40    119472.40
   13027.070    69254.40    119355.40
   13030.080    69392.40    119446.40
   13033.090    69510.40    119484.40
   13036.120    69562.40    119409.40
   13039.160    69620.40    119367.40
   13042.220    69787.40    119505.40
   13045.280    69882.40    119465.40
   13048.360    69936.40    119395.40
   13051.450    70001.40    119337.40
   13054.550    70082.40    119297.40
   13057.670    70210.40    119374.40
   13060.790    70383.40    119468.40
   13063.930    70474.40    119498.40
   13067.080    70574.40    119529.40
   13070.240    70712.40    119579.40
   13073.420    70666.40    119331.40
   13076.600    70754.40    119306.40
   13079.800    70868.40    119335.40
   13083.010    71021.40    119470.40
   13086.240    71085.40    119441.40
   13089.470    71133.40    119348.40
   13092.720    71157.40    119237.40
   13095.980    71272.40    119284.40
   13099.250    71326.40    119295.40
   13102.540    71403.40    119239.40
   13105.840    71502.40    119267.40
   13109.140    71591.40    119273.40
   13112.470    71619.40    119173.40
   13115.800    71695.40    119145.40
   13119.140    71765.40    119102.40
   13122.500    71889.40    119179.40
   13125.870    72045.40    119299.40
   13129.250    72127.40    119291.40
   13132.650    72221.40    119269.40
   13136.050    72319.40    119256.40
   13139.470    72356.40    119108.40
   13142.900    72563.40    119278.40
   13146.350    72701.40    119309.40
   13149.800    72785.40    119233.40
   13153.270    72851.40    119189.40
   13156.750    72938.40    119139.40
   13160.240    73114.40    119246.40
   13163.740    73206.40    119231.40
   13167.260    73253.40    119087.40
   13170.790    73358.40    119060.40
   13174.330    73496.40    119109.40
   13177.880    73575.40    119075.40
   13181.440    73714.40    119129.40
   13185.020    73717.40    118940.40
   13188.610    73889.40    119097.40
   13192.210    73972.40    119042.40
   13195.820    73996.40    118902.40
   13199.450    74113.40    118942.40
   13203.090    74276.40    119064.40
   13206.740    74554.40    119395.40
   13210.400    74797.40    119611.40
   13214.070    74861.40    119561.40
   13217.760    74541.40    119057.40
   13221.460    75277.40    119961.40
   13225.170    75200.40    119607.40
   13228.890    75223.40    119463.40
   13232.630    75332.40    119477.40
   13236.370    75440.40    119475.40
   13240.130    75568.40    119491.40
   13243.910    75625.40    119419.40
   13247.690    75766.40    119538.40
   13251.490    75862.40    119523.40
   13255.290    75863.40    119306.40
   13259.110    75896.40    119212.40
   13262.950    75892.40    119059.40
   13266.790    75743.40    118794.40
   13270.650    74759.40    117408.40
   13274.520    74342.40    116934.40
   13278.400    75527.40    118802.40
   13282.290    75711.40    119005.40
   13286.200    75590.40    118720.40
   13290.110    76042.40    119317.40
   13294.040    76325.40    119543.40
   13297.990    76233.40    119228.40
   13301.940    76335.40    119220.40
   13305.910    76663.40    119523.40
   13309.890    76851.40    119638.40
   13313.880    76945.40    119578.40
   13317.880    76980.40    119388.40
   13321.900    76945.40    119175.40
   13325.920    77027.40    119167.40
   13329.960    77271.40    119337.40
   13334.010    77554.40    119574.40
   13338.080    77680.40    119538.40
   13342.150    77786.40    119506.40
   13346.240    77874.40    119409.40
   13350.340    77957.40    119298.40
   13354.460    78108.40    119345.40
   13358.580    78195.40    119296.40
   13362.720    78282.40    119199.40
   13366.870    78297.40    119019.40
   13371.030    78462.40    119053.40
   13375.200    78604.40    119124.40
   13379.390    78779.40    119204.40
   13383.580    78945.40    119293.40
   13387.790    79046.40    119226.40
   13392.020    79211.40    119271.40
   13396.250    79286.40    119128.40
   13400.500    79379.40    119091.40
   13404.760    79614.40    119203.40
