# XDI/1.0 GSE/1.0
# Column.1: energy eV
# Column.2: time
# Column.3: i0
# Column.4: itrans
# Element.edge: K
# Element.symbol: Se
# Scan.edge_energy: 12658.0
# Mono.name: Si 111
# Mono.d_spacing: 3.13550
# Beamline.name: 13-BM-D
# Beamline.collimation: none
# Beamline.focusing: no
# Beamline.harmonic_rejection: Rh-coated mirror, detuned 
# Facility.name: APS
# Facility.energy: 7.00 GeV
# Facility.xray_source: APS bending magnet
# Scan.start_time: 2008-04-10T18:41:21
# Detector.I0: 10cm  N2
# Detector.I1: 10cm  N2 (?)
# Sample.name: ZnSe
# Sample.prep: powder on tape, 6 layers
# ///
# room temperature
# measured at beamline 13-BM-D
#----
#   energy       time                i0           itrans
       12508.00       2.000000       120807.4       395711.4 
       12513.00       2.000000       119755.4       392629.4 
       12518.00       2.000000       119361.4       391516.4 
       12523.00       2.000000       118891.4       390399.4 
       12528.00       2.000000       119497.4       393097.4 
       12533.00       2.000000       119867.4       394739.4 
       12538.00       2.000000       119544.4       393981.4 
       12543.00       2.000000       118952.4       392466.4 
       12548.00       2.000000       118852.4       392566.4 
       12553.00       2.000000       119062.4       393755.4 
       12558.00       2.000000       119124.4       394286.4 
       12563.00       2.000000       119075.4       394571.4 
       12568.00       2.000000       119328.4       395925.4 
       12573.00       2.000000       119306.4       396159.4 
       12578.00       2.000000       119117.4       396038.4 
       12583.00       2.000000       118963.4       395884.4 
       12588.00       2.000000       118777.4       395670.4 
       12593.00       2.000000       119314.4       397694.4 
       12598.00       2.000000       119070.4       397268.4 
       12603.00       2.000000       118792.4       396888.4 
       12608.00       2.000000       119000.4       397826.4 
       12613.00       2.000000       119102.4       398488.4 
       12618.00       2.000000       118989.4       398533.4 
       12623.00       2.000000       118872.4       398434.4 
       12628.00       2.000000       119043.4       399056.4 
       12633.00       2.000000       119179.4       399654.4 
       12638.00       2.000000       118982.4       398959.4 
       12643.00       2.000000       118855.4       397918.4 
       12648.00       2.000000       119052.4       396771.4 
       12648.25       2.000000       119141.4       396819.4 
       12648.50       2.000000       119313.4       397278.4 
       12648.75       2.000000       119373.4       397321.4 
       12649.00       2.000000       119389.4       397171.4 
       12649.25       2.000000       119290.4       396730.4 
       12649.50       2.000000       119348.4       396600.4 
       12649.75       2.000000       119393.4       396478.4 
       12650.00       2.000000       119372.4       396185.4 
       12650.25       2.000000       119401.4       395993.4 
       12650.50       2.000000       119341.4       395477.4 
       12650.75       2.000000       119379.4       395416.4 
       12651.00       2.000000       119345.4       395015.4 
       12651.25       2.000000       119741.4       395838.4 
       12651.50       2.000000       119912.4       395852.4 
       12651.75       2.000000       119932.4       395590.4 
       12652.00       2.000000       119878.4       394777.4 
       12652.25       2.000000       119906.4       394414.4 
       12652.50       2.000000       119841.4       393419.4 
       12652.75       2.000000       119820.4       392728.4 
       12653.00       2.000000       119741.4       391649.4 
       12653.25       2.000000       119684.4       390422.4 
       12653.50       2.000000       119728.4       389735.4 
       12653.75       2.000000       119626.4       388201.4 
       12654.00       2.000000       119716.4       387320.4 
       12654.25       2.000000       119793.4       386034.4 
       12654.50       2.000000       119854.4       384318.4 
       12654.75       2.000000       119872.4       382758.4 
       12655.00       2.000000       119840.4       380122.4 
       12655.25       2.000000       119907.4       378024.4 
       12655.50       2.000000       119924.4       374526.4 
       12655.75       2.000000       119991.4       371449.4 
       12656.00       2.000000       119789.4       365416.4 
       12656.25       2.000000       119736.4       358732.4 
       12656.50       2.000000       119748.4       352632.4 
       12656.75       2.000000       119726.4       343185.4 
       12657.00       2.000000       119730.4       336019.4 
       12657.25       2.000000       119666.4       324405.4 
       12657.50       2.000000       119740.4       315616.4 
       12657.75       2.000000       119703.4       304141.4 
       12658.00       2.000000       119737.4       293791.4 
       12658.25       2.000000       119692.4       286732.4 
       12658.50       2.000000       119620.4       278842.4 
       12658.75       2.000000       119530.4       274273.4 
       12659.00       2.000000       119607.4       270367.4 
       12659.25       2.000000       119557.4       267522.4 
       12659.50       2.000000       119576.4       266377.4 
       12659.75       2.000000       119554.4       265426.4 
       12660.00       2.000000       119533.4       265108.4 
       12660.25       2.000000       119487.4       264915.4 
       12660.50       2.000000       119437.4       264934.4 
       12660.75       2.000000       119531.4       265541.4 
       12661.00       2.000000       119497.4       266117.4 
       12661.25       2.000000       119549.4       266905.4 
       12661.50       2.000000       119561.4       267931.4 
       12661.75       2.000000       119525.4       268656.4 
       12662.00       2.000000       119521.4       269752.4 
       12662.25       2.000000       119443.4       270475.4 
       12662.50       2.000000       119454.4       271585.4 
       12662.75       2.000000       119437.4       273169.4 
       12663.00       2.000000       119505.4       274447.4 
       12663.25       2.000000       119467.4       276308.4 
       12663.50       2.000000       119517.4       277803.4 
       12663.75       2.000000       119487.4       279895.4 
       12664.00       2.000000       119512.4       282222.4 
       12664.25       2.000000       119485.4       283838.4 
       12664.50       2.000000       119715.4       286656.4 
       12664.75       2.000000       120081.4       289283.4 
       12665.00       2.000000       120023.4       291396.4 
       12665.25       2.000000       120025.4       293178.4 
       12665.50       2.000000       120023.4       295751.4 
       12665.75       2.000000       119960.4       298175.4 
       12666.00       2.000000       120017.4       300476.4 
       12666.25       2.000000       120119.4       303701.4 
       12666.50       2.000000       120021.4       305636.4 
       12666.75       2.000000       119929.4       308133.4 
       12667.00       2.000000       119901.4       309799.4 
       12667.25       2.000000       119949.4       311994.4 
       12667.50       2.000000       119974.4       313351.4 
       12667.75       2.000000       119923.4       313920.4 
       12668.00       2.000000       119961.4       314506.4 
       12668.25       2.000000       120005.4       314580.4 
       12668.50       2.000000       119976.4       314112.4 
       12668.75       2.000000       119947.4       313575.4 
       12669.00       2.000000       119863.4       312576.4 
       12669.25       2.000000       119857.4       311339.4 
       12669.50       2.000000       119729.4       310147.4 
       12669.75       2.000000       119804.4       308976.4 
       12670.00       2.000000       119852.4       308062.4 
       12670.25       2.000000       119746.4       306505.4 
       12670.50       2.000000       119791.4       305650.4 
       12670.75       2.000000       119806.4       304610.4 
       12671.00       2.000000       119764.4       303775.4 
       12671.25       2.000000       119786.4       303451.4 
       12671.50       2.000000       119739.4       302900.4 
       12671.75       2.000000       119734.4       302709.4 
       12672.00       2.000000       119781.4       302725.4 
       12672.25       2.000000       119804.4       302707.4 
       12672.50       2.000000       119798.4       302754.4 
       12672.75       2.000000       119730.4       302678.4 
       12673.00       2.000000       119709.4       302641.4 
       12673.25       2.000000       119720.4       302936.4 
       12673.50       2.000000       119638.4       302919.4 
       12673.75       2.000000       119685.4       303380.4 
       12674.00       2.000000       119694.4       303725.4 
       12674.25       2.000000       119603.4       303956.4 
       12674.50       2.000000       119594.4       304452.4 
       12674.75       2.000000       119593.4       304875.4 
       12675.00       2.000000       119641.4       305658.4 
       12675.25       2.000000       119626.4       306115.4 
       12675.50       2.000000       119663.4       306888.4 
       12675.75       2.000000       119574.4       307073.4 
       12676.00       2.000000       119489.4       307430.4 
       12676.25       2.000000       119468.4       307821.4 
       12676.50       2.000000       119539.4       308345.4 
       12676.75       2.000000       119599.4       308733.4 
       12677.00       2.000000       119675.4       309055.4 
       12677.25       2.000000       119696.4       309265.4 
       12677.50       2.000000       119660.4       309182.4 
       12677.75       2.000000       119566.4       308991.4 
       12678.00       2.000000       120116.4       310344.4 
       12678.25       2.000000       120182.4       310544.4 
       12678.50       2.000000       120138.4       310208.4 
       12678.75       2.000000       120077.4       309973.4 
       12679.00       2.000000       120031.4       309722.4 
       12679.25       2.000000       120001.4       309469.4 
       12679.50       2.000000       119982.4       309223.4 
       12679.75       2.000000       119935.4       308925.4 
       12680.00       2.000000       119997.4       308841.4 
       12680.25       2.000000       120045.4       308743.4 
       12680.50       2.000000       120006.4       308500.4 
       12680.75       2.000000       119938.4       308080.4 
       12681.00       2.000000       119994.4       308088.4 
       12681.25       2.000000       119953.4       307722.4 
       12681.50       2.000000       120094.4       307983.4 
       12681.75       2.000000       120038.4       307694.4 
       12682.00       2.000000       119929.4       307267.4 
       12682.25       2.000000       120011.4       307400.4 
       12682.50       2.000000       119930.4       307073.4 
       12682.75       2.000000       119877.4       306909.4 
       12683.00       2.000000       119874.4       306868.4 
       12683.25       2.000000       119848.4       306888.4 
       12683.50       2.000000       119968.4       307232.4 
       12683.75       2.000000       119939.4       307443.4 
       12684.00       2.000000       119879.4       307429.4 
       12684.25       2.000000       119791.4       307558.4 
       12684.50       2.000000       119840.4       308010.4 
       12684.75       2.000000       119755.4       308260.4 
       12685.00       2.000000       119887.4       308957.4 
       12685.25       2.000000       119792.4       309237.4 
       12685.50       2.000000       119832.4       309728.4 
       12685.75       2.000000       119793.4       310099.4 
       12686.00       2.000000       119783.4       310456.4 
       12686.25       2.000000       119795.4       310829.4 
       12686.50       2.000000       119793.4       311087.4 
       12686.75       2.000000       119823.4       311461.4 
       12687.00       2.000000       119819.4       311682.4 
       12687.25       2.000000       119864.4       311825.4 
       12687.50       2.000000       119731.4       311562.4 
       12687.75       2.000000       119631.4       311298.4 
       12688.00       2.000000       119624.4       311244.4 
       12688.86       2.000000       119636.4       310768.4 
       12689.73       2.000000       119656.4       309887.4 
       12690.62       2.000000       119741.4       309385.4 
       12691.52       2.000000       119553.4       308446.4 
       12692.43       2.000000       119662.4       308740.4 
       12693.35       2.000000       119587.4       308756.4 
       12694.28       2.000000       119584.4       309154.4 
       12695.23       2.000000       119508.4       309362.4 
       12696.19       2.000000       119362.4       309313.4 
       12697.16       2.000000       119247.4       309439.4 
       12698.14       2.000000       119688.4       310611.4 
       12699.13       2.000000       119572.4       310310.4 
       12700.14       2.000000       120098.4       311399.4 
       12701.16       2.000000       120217.4       311422.4 
       12702.19       2.000000       120173.4       311036.4 
       12703.24       2.000000       120170.4       310734.4 
       12704.29       2.000000       120121.4       310343.4 
       12705.36       2.000000       120081.4       310333.4 
       12706.44       2.000000       120061.4       310831.4 
       12707.53       2.000000       120032.4       311861.4 
       12708.64       2.000000       119992.4       313099.4 
       12709.75       2.000000       119949.4       314212.4 
       12710.88       2.000000       120046.4       315323.4 
       12712.02       2.000000       120033.4       315856.4 
       12713.18       2.000000       120160.4       316449.4 
       12714.34       2.000000       120092.4       316374.4 
       12715.52       2.000000       119986.4       316181.4 
       12716.71       2.000000       120007.4       316334.4 
       12717.91       2.000000       119941.4       316122.4 
       12719.13       2.000000       119976.4       315936.4 
       12720.35       2.000000       119905.4       315509.4 
       12721.59       2.000000       119910.4       315151.4 
       12722.84       2.000000       119895.4       314770.4 
       12724.10       2.000000       119895.4       313987.4 
       12725.38       2.000000       119986.4       313720.4 
       12726.67       2.000000       120057.4       313378.4 
       12727.96       2.000000       120014.4       312875.4 
       12729.28       2.000000       119867.4       312385.4 
       12730.60       2.000000       119837.4       312387.4 
       12731.94       2.000000       119873.4       312806.4 
       12733.28       2.000000       119888.4       313210.4 
       12734.64       2.000000       119878.4       313434.4 
       12736.02       2.000000       119835.4       313589.4 
       12737.40       2.000000       119757.4       313570.4 
       12738.80       2.000000       119574.4       313431.4 
       12740.21       2.000000       119396.4       313119.4 
       12741.63       2.000000       120158.4       315213.4 
       12743.06       2.000000       119962.4       314904.4 
       12744.51       2.000000       119828.4       314750.4 
       12745.96       2.000000       119852.4       315271.4 
       12747.43       2.000000       119861.4       315756.4 
       12748.92       2.000000       119827.4       315891.4 
       12750.41       2.000000       119686.4       315666.4 
       12751.92       2.000000       119686.4       315558.4 
       12753.44       2.000000       119819.4       315908.4 
       12754.97       2.000000       119760.4       315718.4 
       12756.51       2.000000       119708.4       315851.4 
       12758.06       2.000000       119654.4       316117.4 
       12759.63       2.000000       119739.4       317006.4 
       12761.21       2.000000       119612.4       317692.4 
       12762.80       2.000000       119647.4       318799.4 
       12764.41       2.000000       119725.4       319925.4 
       12766.02       2.000000       119741.4       320560.4 
       12767.65       2.000000       119584.4       320409.4 
       12769.29       2.000000       119518.4       320293.4 
       12770.94       2.000000       119782.4       321074.4 
       12772.61       2.000000       119589.4       320500.4 
       12774.29       2.000000       120553.4       322994.4 
       12775.97       2.000000       120369.4       322230.4 
       12777.68       2.000000       120291.4       321569.4 
       12779.39       2.000000       120237.4       320745.4 
       12781.11       2.000000       120178.4       319888.4 
       12782.85       2.000000       120078.4       318977.4 
       12784.60       2.000000       120147.4       318338.4 
       12786.36       2.000000       120044.4       317571.4 
       12788.14       2.000000       120183.4       317441.4 
       12789.92       2.000000       120065.4       316948.4 
       12791.72       2.000000       120180.4       317216.4 
       12793.54       2.000000       120160.4       317460.4 
       12795.36       2.000000       120152.4       317825.4 
       12797.19       2.000000       119895.4       317608.4 
       12799.04       2.000000       119898.4       318163.4 
       12800.90       2.000000       119828.4       318320.4 
       12802.77       2.000000       119244.4       317258.4 
       12804.66       2.000000       120532.4       321176.4 
       12806.55       2.000000       120276.4       320918.4 
       12808.46       2.000000       120048.4       320729.4 
       12810.38       2.000000       119932.4       320882.4 
       12812.31       2.000000       119888.4       321124.4 
       12814.26       2.000000       119944.4       321659.4 
       12816.21       2.000000       120045.4       322395.4 
       12818.18       2.000000       120047.4       322747.4 
       12820.17       2.000000       119876.4       322540.4 
       12822.16       2.000000       119792.4       322717.4 
       12824.17       2.000000       119878.4       323182.4 
       12826.18       2.000000       119921.4       323796.4 
       12828.21       2.000000       119831.4       323958.4 
       12830.25       2.000000       119869.4       324546.4 
       12832.31       2.000000       119799.4       324623.4 
       12834.38       2.000000       119720.4       324804.4 
       12836.46       2.000000       119750.4       325169.4 
       12838.55       2.000000       119552.4       324939.4 
       12840.65       2.000000       119659.4       325398.4 
       12842.76       2.000000       120110.4       326725.4 
       12844.89       2.000000       119885.4       325929.4 
       12847.03       2.000000       119818.4       325646.4 
       12849.18       2.000000       119792.4       325384.4 
       12851.35       2.000000       119781.4       325372.4 
       12853.52       2.000000       119788.4       325478.4 
       12855.71       2.000000       118994.4       323557.4 
       12857.91       2.000000       120251.4       326962.4 
       12860.13       2.000000       119966.4       326126.4 
       12862.35       2.000000       119890.4       325713.4 
       12864.59       2.000000       119807.4       325091.4 
       12866.84       2.000000       119543.4       324055.4 
       12869.10       2.000000       119033.4       322411.4 
       12871.37       2.000000       119944.4       324564.4 
       12873.66       2.000000       119771.4       323961.4 
       12875.96       2.000000       119622.4       323597.4 
       12878.27       2.000000       119706.4       323926.4 
       12880.59       2.000000       119611.4       323982.4 
       12882.92       2.000000       119637.4       324626.4 
