# XDI/1.0
# Column.1: energy eV
# Column.2: i0
# Column.3: itrans
# Column.4: irefer
# Beamline.name: SSRL 2-3
# Beamline.notes: vert slits = 0.6mm
# Detector.I0: N2 15cm
# Detector.I1: N2 30cm
# Detector.I2: N2 15cm
# Element.edge: K
# Element.symbol: Cr
# Mono.d_spacing: 3.13550
# Mono.name: Si(111)
# Mono.notes: unfocused, detuned 75%, clockwise at E=5990eV
# Sample.formula: Cr2O3
# Sample.name: Cr2O3
# Sample.prep: powder on tape (5 layers)
# Sample.reference: Cr foil
# Sample.temperature: room temp
# Scan.start_time: 1997-04-17 17:30:13
# ///
#    Note: mono d_spacing is nominal!
#     exafs to K16
#     396  E XMU XMUR I0
#-------------
#   energy   i0   itrans  irefer
    5759.9890  26807.900000  9316.496260  1189.699341
    5769.9800  26777.900000  9505.503251  1219.699992
    5780.0070  26738.900000  9705.497077  1254.699917
    5790.0030  26695.900000  9905.500368  1286.700507
    5799.9650  26624.900000  10088.500069  1319.699644
    5810.0340  26604.900000  10299.499578  1355.700520
    5820.0000  26533.900000  10491.499530  1390.700199
    5830.0020  26475.900000  10688.499873  1424.700171
    5839.9710  26437.900000  10894.500131  1460.700458
    5849.9750  26414.900000  11120.499923  1498.700269
    5860.0160  26343.900000  11320.500087  1533.700203
    5870.0220  26297.900000  11526.499491  1572.699686
    5879.9930  26244.900000  11741.500116  1608.700298
    5890.0000  26208.900000  11962.499892  1651.699483
    5899.9710  26132.900000  12173.499986  1688.700768
    5909.9780  26076.900000  12395.499522  1730.699159
    5920.0210  26014.900000  12610.499376  1769.699487
    5930.0260  25962.900000  12833.499440  1809.699657
    5939.9950  25894.900000  13049.500251  1852.699636
    5949.9990  25830.900000  13259.499643  1891.700670
    5959.9650  25765.900000  13476.499790  1933.700283
    5969.9670  25697.900000  13688.500167  1972.699830
    5970.4870  25700.900000  13704.499516  1974.699452
    5971.0060  25694.900000  13712.500042  1975.700124
    5971.5260  25642.900000  13697.499942  1973.700743
    5971.9720  25543.900000  13657.500264  1967.700969
    5972.4920  25382.900000  13581.500630  1956.700466
    5973.0120  25331.900000  13566.499354  1955.700558
    5973.5320  25438.900000  13629.500508  1965.700359
    5973.9780  25566.900000  13713.499959  1977.700381
    5974.4980  25697.900000  13793.500135  1989.699210
    5975.0190  25742.900000  13830.499483  1996.700885
    5975.4640  25763.900000  13855.500299  2001.700936
    5975.9850  25732.900000  13848.500074  1999.699519
    5976.5060  25727.900000  13855.500561  1998.700673
    5977.0260  25730.900000  13870.500300  2001.700970
    5977.4730  25738.900000  13883.499744  2007.700558
    5977.9940  25729.900000  13891.499965  2008.700790
    5978.5150  25718.900000  13888.499592  2008.700770
    5979.0370  25737.900000  13913.500305  2012.701025
    5979.4830  25731.900000  13917.500365  2012.699926
    5980.0050  25730.900000  13930.500326  2013.699755
    5980.5260  25714.900000  13934.500154  2013.699929
    5980.9730  25718.900000  13948.499366  2017.699357
    5981.4950  25717.900000  13958.500081  2018.699814
    5982.0160  25726.900000  13974.499956  2023.699429
    5982.4630  25717.900000  13980.500643  2025.700461
    5982.9860  25719.900000  13989.499484  2026.700318
    5983.5070  25745.900000  14014.499765  2028.700603
    5984.0300  25753.900000  14037.499325  2030.699413
    5984.4770  25745.900000  14038.500503  2031.699411
    5984.9990  25739.900000  14044.499397  2033.700047
    5985.5210  25719.900000  14041.499731  2032.700514
    5985.9700  25618.900000  13994.499511  2024.699633
    5986.4920  25230.900000  13791.499634  1992.699862
    5987.0150  24448.900000  13368.500425  1930.699216
    5987.4630  23115.900000  12643.500548  1824.699457
    5987.9860  22271.900000  12195.499548  1758.700166
    5988.5090  23346.900000  12789.499887  1840.699225
    5989.0320  24311.900000  13319.500207  1913.699237
    5989.4800  24715.900000  13540.499551  1936.699356
    5990.0030  25046.900000  13715.499825  1946.699876
    5990.5260  25211.900000  13799.500630  1922.699917
    5990.9750  25267.900000  13793.500672  1877.699797
    5991.4990  25325.900000  13751.499703  1818.699868
    5992.0210  25361.900000  13655.499686  1761.700169
    5992.4710  25379.900000  13606.500033  1726.699223
    5992.9950  25388.900000  13633.499610  1697.699282
    5993.5180  25388.900000  13673.500240  1678.699977
    5993.9670  25411.900000  13654.500418  1656.700822
    5994.4920  25419.900000  13553.500207  1623.700546
    5995.0160  25423.900000  13425.499904  1592.700298
    5995.4650  25412.900000  13321.500636  1569.699687
    5995.9890  25433.900000  13267.499922  1552.700122
    5996.5140  25426.900000  13269.500001  1550.699576
    5996.9630  25423.900000  13296.500449  1550.700674
    5997.4880  25416.900000  13303.500647  1554.699388
    5998.0120  25437.900000  13302.500005  1551.699820
    5998.5380  25415.900000  13261.499495  1539.699184
    5998.9870  25423.900000  13207.500349  1517.699766
    5999.5130  25410.900000  13058.499388  1478.699841
    6000.0370  25403.900000  12815.500381  1419.699750
    6000.4870  25401.900000  12512.500372  1361.700348
    6001.0130  25328.900000  11982.499811  1277.699552
    6001.4620  25222.900000  11410.500318  1195.700268
    6001.9880  25081.900000  10702.500122  1100.700032
    6002.5130  25024.900000  10043.499700  1014.699621
    6002.9640  25093.900000  9597.500392   959.700223
    6003.4900  25263.900000  9248.501138   911.699808
    6004.0160  25380.900000  9070.495766   884.699644
    6004.4660  25405.900000  8940.499235   862.699744
    6004.9930  25405.900000  8706.496146   830.699992
    6005.5180  25370.900000  8346.496316   788.699295
    6005.9700  25378.900000  7996.501393   750.700221
    6006.4960  25383.900000  7588.501300   704.700150
    6007.0220  25384.900000  7225.500530   665.699780
    6007.4730  25365.900000  6899.498669   630.699822
    6008.0000  25363.900000  6455.502728   584.700168
    6008.5260  25380.900000  5987.499760   537.700225
    6008.9780  25388.900000  5675.502301   506.700120
    6009.5040  25384.900000  5487.498522   484.699828
    6010.0320  25363.900000  5459.498323   474.700074
    6010.9360  25366.664000  5558.253116   477.464662
    6011.8390  25381.951000  5505.520581   468.757984
    6012.8180  25369.768000  5209.298641   449.581211
    6013.7980  25366.107000  5059.582211   448.931894
    6014.7780  25379.975000  5282.378540   480.811719
    6015.7580  25400.367000  5759.689821   531.221941
    6016.8150  25413.285000  6162.503263   571.159981
    6017.7960  25406.730000  6364.833669   586.627114
    6018.9290  25426.701000  6560.670725   600.624004
    6019.9860  25445.197000  6781.023181   611.148077
    6021.1200  25460.219000  6975.877978   624.202899
    6022.1770  25488.768000  7054.254321   628.786118
    6023.3880  25492.842000  6967.132310   622.896882
    6024.5220  25530.441000  6825.519838   617.538728
    6025.7330  25552.566000  6732.427265   608.708209
    6026.8690  25603.219000  6718.837079   607.408390
    6028.1570  25615.396000  6799.754965   609.634658
    6029.3690  25635.100000  7025.191721   623.392156
    6030.5820  25695.330000  7333.136059   647.677924
    6031.8720  25722.086000  7643.587036   671.492790
    6033.1610  25778.367000  7931.551388   693.836909
    6034.5280  25799.174000  8155.026421   711.709452
    6035.8190  25844.508000  8338.006191   728.110921
    6037.1870  25886.367000  8519.506865   744.042189
    6038.5550  25948.752000  8696.507567   756.500954
    6040.0000  25978.664000  8815.024417   765.489780
    6041.3700  26029.102000  8878.052499   770.007688
    6042.8160  26062.064000  8912.588989   772.053655
    6044.2640  26112.553000  8900.639753   774.629953
    6045.7120  26187.568000  8874.196485   774.734255
    6047.2370  26245.109000  8874.266179   778.368394
    6048.7630  26305.176000  8914.843762   783.529729
    6050.2890  26375.768000  8936.935184   790.221265
    6051.8160  26425.887000  8895.531730   794.442314
    6053.4220  26508.531000  8791.642952   793.190869
    6054.9510  26557.701000  8653.265482   791.469260
    6056.5570  26640.398000  8552.390081   790.276642
    6058.2410  26724.621000  8492.031688   791.612935
    6059.8490  26775.369000  8409.183629   789.477770
    6061.5350  26794.643000  8300.850500   784.872480
    6063.2220  26840.443000  8209.022196   777.795080
    6064.9100  26918.770000  8146.707133   772.248270
    6066.6760  26991.621000  8108.894004   763.228730
    6068.3650  27080.000000  8124.599608   755.737979
    6070.1330  27155.904000  8144.814616   750.777068
    6071.9020  27262.332000  8179.540449   742.345114
    6073.7490  27367.289000  8243.775808   742.441995
    6075.5210  27444.770000  8342.522441   753.068280
    6077.3690  27518.777000  8457.778679   771.222448
    6079.2200  27631.313000  8574.542669   792.905413
    6081.1490  27739.371000  8681.824824   817.119229
    6083.0020  27847.957000  8816.611446   840.861436
    6084.9340  27935.068000  8979.909615   869.131204
    6086.8660  28042.705000  9148.715865   892.930550
    6088.8000  28146.867000  9309.031442   905.260123
    6090.8130  28245.557000  9469.860448   909.116683
    6092.8270  28346.771000  9640.202609   906.503059
    6094.8430  28468.512000  9812.054044   903.419414
    6096.8590  28579.779000  9945.412999   895.864092
    6098.8780  28711.572000  10020.282081   885.836615
    6100.9750  28844.891000  10062.663478   880.339094
    6103.0750  28917.736000  10095.553802   883.371104
    6105.1750  29035.105000  10161.962827   896.930962
    6107.2770  29161.002000  10258.875863   926.020662
    6109.4590  29277.426000  10372.299835   958.638505
    6111.6430  29407.373000  10506.230112   992.786568
    6113.8270  29539.848000  10632.667818  1022.460658
    6116.0130  29692.848000  10747.629394  1045.667261
    6118.2800  29809.375000  10820.093787  1058.401701
    6120.4700  29948.426000  10890.063510  1065.663669
    6122.7400  30082.004000  10981.555791  1071.456694
    6125.0110  30207.107000  11095.551118  1079.777744
    6127.3630  30330.738000  11202.056234  1091.627120
    6129.6390  30483.895000  11319.072235  1110.005657
    6131.9950  30610.576000  11421.600807  1128.914295
    6134.3520  30768.783000  11514.638478  1144.350397
    6136.7900  30908.518000  11573.186448  1152.316091
    6139.1510  31049.775000  11627.245126  1158.810516
    6141.5940  31226.561000  11695.813377  1165.834275
    6144.0380  31373.873000  11745.894514  1168.387714
    6146.4840  31501.711000  11806.483879  1170.470567
    6148.9320  31681.074000  11909.584164  1174.079537
    6151.4620  31840.963000  12037.194593  1178.219506
    6153.9940  31966.377000  12190.315581  1190.887505
    6156.5280  32150.318000  12343.948485  1204.084999
    6159.0640  32297.785000  12423.091419  1205.811702
    6161.6030  32454.777000  12461.742404  1200.066946
    6164.2220  32626.297000  12518.906475  1192.851930
    6166.8440  32794.344000  12614.579668  1194.166272
    6169.4700  32962.914000  12754.763521  1212.007180
    6172.0960  33120.008000  12930.457449  1240.378495
    6174.8060  33294.633000  13179.662382  1281.279147
    6177.5170  33474.781000  13424.378557  1324.708386
    6180.2310  33624.453000  13597.603584  1356.666476
    6182.9480  33816.656000  13734.339948  1385.153913
    6185.6670  33997.379000  13864.587583  1408.169922
    6188.4690  34177.633000  14033.344171  1427.714943
    6191.2730  34347.410000  14199.611648  1449.788401
    6194.0810  34523.715000  14375.389460  1473.392668
    6196.8910  34726.547000  14609.677297  1502.523665
    6199.7030  34881.902000  14877.476536  1533.185240
    6202.5990  35109.781000  15191.785477  1570.375641
    6205.4980  35266.191000  15449.605097  1603.093889
    6208.3990  35453.125000  15661.935866  1632.341197
    6211.3040  35663.582000  15841.775283  1663.118503
    6214.2100  35845.570000  15993.127344  1685.425559
    6217.2020  36034.082000  16133.988163  1709.259290
    6220.1960  36199.117000  16221.358929  1719.622562
    6223.1930  36435.680000  16311.241201  1722.515142
    6226.1930  36614.770000  16378.634497  1721.936812
    6229.1960  36825.387000  16481.538430  1725.888295
    6232.2840  37005.527000  16610.951053  1726.368691
    6235.3750  37178.195000  16781.874976  1731.375940
    6238.4690  37498.387000  17066.311263  1749.913606
    6241.5650  36878.105000  16909.255158  1728.979093
    6244.7480  37657.352000  17380.710641  1772.574496
    6247.8520  37894.121000  17618.676097  1803.700669
    6251.0410  38219.418000  17909.152787  1849.354966
    6254.2330  38414.242000  18132.138587  1890.535224
    6257.4290  38642.590000  18348.637776  1943.247099
    6260.7100  38857.465000  18533.642751  1988.486124
    6263.9130  39043.863000  18685.159636  2015.256750
    6267.2020  39248.789000  18872.189630  2041.554220
    6270.4940  39447.242000  19112.728631  2071.380998
    6273.7900  39671.219000  19371.777960  2102.737911
    6277.1720  39916.727000  19671.338131  2142.622742
    6280.4750  40125.754000  19942.407063  2179.037951
    6283.8650  40333.313000  20192.988755  2210.979108
    6287.2580  40541.391000  20427.077563  2239.452356
    6290.6550  40751.000000  20637.680992  2263.453126
    6294.0560  40997.133000  20862.791001  2292.982192
    6297.5440  41221.793000  21092.414486  2329.043045
    6300.9540  41407.980000  21298.546179  2360.630669
    6304.4500  41620.691000  21498.189524  2391.746192
    6307.9500  41828.930000  21695.344653  2416.392451
    6311.5380  42053.691000  21926.009028  2446.566368
    6315.0470  42316.980000  22220.183088  2479.272137
    6318.5600  42512.797000  22511.867993  2511.503647
    6322.1610  42705.137000  22792.062000  2534.264147
    6325.7660  42973.004000  23144.766933  2567.554025
    6329.3750  43169.398000  23475.984551  2600.375778
    6333.0730  43396.316000  23817.710741  2639.724228
    6336.6910  43633.762000  24156.947225  2678.601978
    6340.3970  43868.730000  24464.695189  2718.007474
    6344.1090  44082.230000  24744.953108  2759.941692
    6347.8260  44324.254000  25008.723940  2800.406882
    6351.5460  44564.801000  25271.000984  2843.400037
    6355.2710  44805.875000  25526.792050  2881.922394
    6359.0850  45044.477000  25801.091040  2925.975061
    6362.8190  45254.602000  26066.898863  2973.555178
    6366.6450  45512.254000  26369.222308  3026.662443
    6370.4730  45698.434000  26634.051544  3074.300914
    6374.3070  45944.137000  26957.392000  3122.467471
    6378.2300  46158.367000  27280.243111  3165.163600
    6382.0750  46393.121000  27648.608299  3214.392539
    6386.0090  46610.406000  27982.480584  3262.143912
    6389.9480  46846.211000  28278.860035  3301.426112
    6393.8930  47104.547000  28597.755498  3351.239360
    6397.8420  47304.406000  28863.159994  3391.580515
    6401.8820  47556.793000  29195.075241  3435.450404
    6405.8430  47782.703000  29540.497310  3482.847172
    6409.8940  48011.141000  29906.435404  3533.774942
    6413.9500  48237.105000  30252.881562  3579.232665
    6418.0130  48452.594000  30579.837197  3632.219437
    6422.0810  48707.609000  30958.303793  3688.733817
    6426.1530  48938.148000  31331.278606  3744.776423
    6430.3180  49163.219000  31715.767751  3796.349559
    6434.4020  49400.809000  32098.766435  3840.450205
    6438.5790  49613.930000  32466.274442  3884.082694
    6442.7610  49836.574000  32824.291380  3931.243673
    6446.9490  50123.746000  33239.823758  3992.931480
    6451.2300  50328.441000  33635.862859  4057.146300
    6455.4300  50575.664000  34107.411680  4128.894568
    6459.7230  50805.414000  34574.472602  4202.168173
    6463.9340  51034.688000  35007.042600  4268.972895
    6468.2390  51259.488000  35444.125699  4335.307459
    6472.5500  51476.816000  35866.715893  4398.170819
    6476.9550  51700.668000  36285.818940  4461.562327
    6481.2780  51913.047000  36672.429973  4525.478176
    6485.6070  52150.949000  37088.556756  4587.932463
    6490.0310  52390.379000  37507.186987  4650.908457
    6494.4610  52636.336000  37919.332703  4711.414021
    6498.8980  52883.820000  38338.987621  4768.450131
    6503.3410  53089.828000  38736.152876  4827.015399
    6507.7900  53308.359000  39173.827114  4895.110492
    6512.3350  53546.422000  39632.012122  4972.730962
    6516.7970  53764.008000  40027.709309  5037.888002
    6521.3550  54025.117000  40455.915216  5104.563115
    6525.9200  54299.754000  40919.633991  5182.776915
    6530.4920  54484.918000  41356.860863  5255.516724
    6535.0690  54667.609000  41801.598349  5320.783552
    6539.6550  54950.824000  42333.848889  5402.581939
    6544.2470  55118.566000  42795.605000  5470.906968
    6548.9360  55308.832000  43300.873432  5545.760747
    6553.5410  55506.625000  43790.656951  5623.141441
    6558.2440  55738.945000  44307.944485  5697.058533
    6562.9540  55925.789000  44851.745908  5782.496532
    6567.6710  56156.160000  45399.059152  5874.467287
    6572.3950  56424.059000  45981.877228  5959.969392
    6577.2180  56627.480000  46476.210510  6044.994533
    6581.9560  56842.430000  46964.051807  6124.557163
    6586.7920  57047.902000  47447.408153  6206.641329
    6591.5460  57283.906000  47947.272218  6293.258063
    6596.3970  57467.430000  48416.639818  6370.401851
    6601.2570  57698.484000  48907.526429  6454.072322
    6606.1250  57905.063000  49383.922938  6528.276186
    6611.0910  58057.168000  49867.823757  6608.006238
    6615.9730  58228.797000  50399.236501  6697.263608
    6620.9550  58426.953000  50962.165646  6788.055390
    6625.8530  58684.637000  51550.601154  6882.375524
    6630.8500  58864.844000  52081.548804  6969.222969
    6635.8550  59051.578000  52628.008836  7060.595987
    6640.8690  59246.836000  53213.971165  7154.503208
    6645.8910  59437.625000  53776.455612  7251.937999
    6650.9190  59661.934000  54384.441199  7353.902359
    6655.9570  59818.773000  54940.941174  7449.394929
    6661.0960  59987.137000  55532.948757  7549.410765
    6666.1500  60200.027000  56147.468795  7651.958291
    6671.3050  60339.441000  56655.499965  7740.041656
    6676.4690  60556.383000  57267.038934  7844.645691
    6681.6420  60737.848000  57831.089939  7937.786986
    6686.8220  60823.844000  58323.651847  8026.452930
    6692.0110  60833.363000  58711.723278  8103.648740
    6697.3030  60710.406000  59003.304845  8165.365230
    6702.5090  58473.977000  57238.398045  7936.623776
    6707.7240  62661.074000  61724.000080  8580.402600
    6713.0420  62694.699000  62200.116990  8670.711748
    6718.3690  62584.848000  62510.738006  8734.558077
    6723.7050  62624.523000  62994.874983  8822.924346
    6729.0490  62713.723000  63546.519696  8921.822406
    6734.4030  62633.449000  63930.675724  9002.247825
    6739.7660  62445.703000  64208.339895  9059.202638
    6745.1370  63165.480000  65424.515921  9258.685180
    6750.6140  62240.785000  64964.202814  9213.698944
    6756.0030  59784.617000  62852.402300  8943.241944
    6761.4980  62965.973000  66698.108845  9513.316932
    6766.9060  63976.855000  68273.327963  9762.916498
    6772.4200  62524.262000  67236.054800  9648.038529
    6777.9430  64458.195000  69829.297323  10049.698702
    6783.4760  64424.656000  70291.039301  10145.886242
    6789.0180  64318.641000  70690.305080  10230.602114
    6794.5690  64345.152000  71231.069542  10330.845133
    6800.2280  63995.191000  71367.354144  10379.622820
    6805.7990  61310.754000  68896.140457  10048.919938
    6811.4770  66977.844000  75802.447279  11081.760717
    6817.0670  66124.461000  75425.260509  11049.113947
    6822.7650  65948.602000  75810.581540  11132.011548
    6828.4730  66007.273000  76443.410336  11255.430608
    6834.1900  66095.461000  77113.755500  11381.368494
    6839.9180  66219.180000  77845.605554  11519.847866
