# XDI/1.0
# Column.1: energy eV
# Column.2: i0
# Column.3: itrans
# Column.4: irefer
# Beamline.name: SSRL 4-1
# Detector.I0: N2 15cm
# Detector.I1: N2 30cm
# Detector.I2: N2 15cm
# Element.edge: K
# Element.symbol: Cr
# Mono.d_spacing: 3.13550
# Mono.name: Si(111)
# Mono.notes: unfocused, detuned 30%,counter clockwise at E=6200eV
# Sample.formula: Cr2O3
# Sample.name: Cr2O3 chromium sesquioxide
# Sample.prep: powder, mixed 1:100 with B(OH)3 by wt
# Sample.reference: none
# Sample.temperature: room temperature
# Scan.start_time: 1997-01-20 20:45:03
# ///
#    Note: mono d_spacing is nominal!
#     exafs to K15: not great data!!  fluorescence signal included
#     381  E XMU XMUF I0
#-------------
#   energy   i0   itrans  irefer
    5788.9990  521696.090000  40205.717636  39346.686886
    5799.6250  523760.090000  41270.697147  40380.012642
    5810.2500  525815.120000  42352.678594  41427.992433
    5820.8750  527417.120000  43412.687388  42454.824367
    5831.4990  529231.120000  44532.677087  43541.830915
    5842.1250  531130.120000  45686.691375  44658.288746
    5852.7490  533234.120000  46882.692489  45817.133601
    5863.3740  534603.120000  48038.685769  46933.811810
    5874.0000  536524.120000  49292.676441  48142.510411
    5884.6250  538249.120000  50536.684652  49345.547125
    5895.2500  539890.120000  51824.687965  50589.523397
    5905.8750  541402.120000  53122.697915  51842.468726
    5916.5000  542919.120000  54456.725490  53126.730911
    5927.1240  544591.120000  55844.680488  54456.118083
    5937.7490  545967.120000  57245.712806  55806.023085
    5948.3750  547618.120000  58693.687500  57204.424267
    5959.0020  549142.120000  60112.708716  58564.311289
    5959.7580  549418.120000  60233.685436  58678.561846
    5960.5160  549235.120000  60311.670124  58753.272254
    5961.2730  549509.120000  60441.706439  58877.931358
    5962.0310  549865.120000  60562.689085  58993.995751
    5962.7890  549857.120000  60640.710785  59068.577100
    5963.5440  550257.120000  60776.710214  59200.029482
    5964.3030  550166.120000  60869.685089  59287.101458
    5965.0620  550289.120000  60978.711584  59392.240281
    5965.8170  550189.120000  61037.722438  59447.377750
    5966.5760  550295.120000  61158.674988  59562.126230
    5967.3330  550488.120000  61274.720963  59673.961862
    5968.0920  550547.120000  61366.712559  59760.571702
    5968.8480  550698.120000  61458.723226  59847.349327
    5969.6050  550979.120000  61576.722258  59960.237470
    5970.3650  550791.120000  61637.696819  60018.957744
    5971.1200  550824.120000  61698.681228  60075.818535
    5971.8800  550748.120000  61669.690611  60043.662875
    5972.6380  549540.120000  61447.723135  59825.667005
    5973.3920  547362.120000  61406.678178  59779.778067
    5974.1500  545980.120000  61766.711151  60128.498559
    5974.9090  545683.120000  62080.717965  60431.964043
    5975.6670  546087.120000  62138.671429  60485.927426
    5976.4230  545258.120000  61856.692432  60206.330658
    5977.1820  545901.120000  61860.686228  60206.621047
    5977.9410  548417.120000  62266.724460  60601.270930
    5978.6970  550482.120000  62604.707570  60927.888313
    5979.4530  551666.120000  62827.696807  61142.260494
    5980.2100  551883.120000  62926.682870  61234.474805
    5980.9700  552531.120000  63093.689562  61394.397656
    5981.7280  552497.120000  63165.686634  61459.457557
    5982.4850  552418.120000  63221.676397  61508.015110
    5983.2420  552276.120000  63235.707810  61516.664685
    5984.0000  549549.120000  62775.706547  61061.372210
    5984.7570  538599.120000  60556.726056  58890.830918
    5985.5160  509811.090000  57289.722540  55688.894438
    5986.2740  503401.090000  59664.681638  57984.166852
    5987.0300  528162.120000  61968.691521  60230.286995
    5987.7890  542461.120000  62942.676455  61167.009557
    5988.5440  547360.120000  63308.711396  61499.590144
    5989.3040  549344.120000  63323.724751  61455.696158
    5990.0600  550313.120000  63169.679123  61212.690267
    5990.8200  551184.120000  63232.721310  61211.824364
    5991.5760  551608.120000  63319.723394  61288.242787
    5992.3330  552191.120000  63165.686478  61072.752548
    5993.0900  551876.120000  62684.712667  60493.870194
    5993.8480  550987.120000  62144.693564  59870.646495
    5994.6050  548399.120000  61917.716045  59617.559491
    5995.3630  545186.120000  62039.683761  59727.586611
    5996.1220  542804.120000  61989.717109  59647.114779
    5996.8790  543358.120000  61663.712122  59258.822609
    5997.6350  545569.120000  61138.727704  58586.975260
    5998.3940  548778.120000  60393.724879  57575.263758
    5999.1530  551668.120000  59069.672296  55867.076964
    5999.9090  552654.120000  57096.701317  53427.248893
    6000.6670  553108.120000  55229.680433  51121.257962
    6001.4240  553002.120000  53991.673226  49563.763649
    6002.1810  553162.120000  53246.715563  48622.968547
    6002.9400  553463.120000  52373.677085  47587.696427
    6003.6970  553204.120000  51060.696235  46060.043893
    6004.4550  553838.120000  49822.686967  44568.429155
    6005.2120  554042.120000  48500.674872  43021.191193
    6005.9700  553865.120000  46889.707328  41175.432971
    6006.7270  554031.120000  45651.700559  39700.010749
    6007.4860  554188.120000  45222.701028  39114.760255
    6008.2400  554340.120000  45311.707073  39155.638435
    6009.0000  554379.120000  45385.686719  39235.748581
    6009.0120  554442.120000  45393.704091  39243.825471
    6009.0390  554366.060000  45380.669238  39232.905734
    6009.0860  554491.060000  45381.642998  39231.785940
    6009.1550  554711.000000  45386.570504  39233.715146
    6009.2400  554626.000000  45350.491422  39199.183313
    6009.3480  554683.940000  45344.390438  39189.567417
    6009.4720  555003.870000  45323.292642  39161.013044
    6009.6160  555420.810000  45281.159580  39111.374893
    6009.7820  555405.750000  45187.022271  39008.069217
    6009.9660  555625.620000  45113.869283  38921.687795
    6010.1670  556321.560000  45054.707446  38836.000811
    6010.3900  556352.440000  44911.504116  38668.595249
    6010.6310  557228.310000  44874.291044  38596.934191
    6010.8930  557352.190000  44766.108129  38458.584620
    6011.1700  557382.060000  44722.866668  38387.382673
    6011.4710  557754.940000  44756.589724  38392.932389
    6011.7910  558449.810000  44909.338106  38520.915317
    6012.1290  559445.620000  45235.054537  38825.972969
    6012.4840  559001.500000  45506.726788  39110.225577
    6012.8610  560027.310000  46031.389785  39654.119941
    6013.2550  560486.120000  46555.049779  40220.365773
    6013.6710  561131.940000  47050.715119  40764.282335
    6014.1050  561711.690000  47541.342986  41309.091592
    6014.5610  562419.500000  47999.952087  41817.985108
    6015.0350  563637.310000  48424.552941  42270.788879
    6015.5270  563852.060000  48688.112906  42565.395549
    6016.0370  564884.810000  49027.719108  42915.764713
    6016.5680  565393.560000  49358.256410  43262.536603
    6017.1170  565722.310000  49686.801748  43618.210686
    6017.6880  566989.060000  50121.297071  44070.349483
    6018.2760  568161.750000  50527.773192  44493.515049
    6018.8830  568478.500000  50784.261503  44778.785694
    6019.5120  569536.190000  51041.719505  45040.078550
    6020.1580  570264.870000  51143.169103  45132.817250
    6020.8260  571589.560000  51185.596872  45142.618646
    6021.5090  572209.250000  51085.042611  44996.213697
    6022.2140  573756.940000  51050.424358  44896.105651
    6022.9400  574595.620000  50981.841679  44770.709680
    6023.6850  575407.250000  51006.192706  44752.492924
    6024.4440  576752.870000  51163.524866  44868.095453
    6025.2270  577946.560000  51399.857889  45074.131799
    6026.0270  579148.190000  51795.195091  45459.843967
    6026.8520  580308.750000  52334.472789  46013.102344
    6027.6900  581729.370000  53020.749640  46737.046615
    6028.5480  583065.000000  53716.041023  47481.044699
    6029.4270  583942.560000  54358.316635  48179.943371
    6030.3240  585051.120000  55006.547744  48877.273216
    6031.2400  586606.750000  55650.756052  49556.833549
    6032.1780  587906.310000  56200.946504  50140.205862
    6033.1350  588975.870000  56683.106163  50649.234399
    6034.1090  590304.370000  57182.292869  51164.605043
    6035.1020  592231.940000  57767.443093  51756.925470
    6036.1160  593631.440000  58238.616905  52242.981445
    6037.1470  595065.000000  58648.713713  52657.171666
    6038.2020  596684.500000  59008.794846  53004.032629
    6039.2730  597630.000000  59255.869201  53230.984028
    6040.3620  599157.500000  59501.974792  53445.706230
    6041.4730  601265.940000  59747.021040  53637.992512
    6042.6040  602830.440000  59875.054332  53708.515435
    6043.7520  604597.870000  60056.066006  53826.890157
    6044.9190  606254.370000  60291.109224  54006.399590
    6046.1080  608182.810000  60614.098293  54286.013262
    6047.3130  609738.250000  60859.064117  54490.347000
    6048.5400  611210.690000  61012.986068  54593.652853
    6049.7860  612939.060000  61091.914078  54600.471501
    6051.0500  614508.500000  61050.888940  54465.363161
    6052.3330  616899.870000  61051.741472  54356.490425
    6053.6350  618062.310000  60963.680037  54174.216104
    6054.9590  620578.690000  61107.549219  54215.959113
    6056.3000  622235.060000  61179.363278  54202.993162
    6057.6630  623706.370000  61171.212614  54111.314081
    6059.0440  624653.750000  61111.037493  53962.221303
    6060.4440  626372.120000  61161.850382  53911.463456
    6061.8600  627884.440000  61198.650388  53859.340187
    6063.2990  629695.750000  61307.413046  53886.003358
    6064.7570  632211.120000  61578.167807  54074.416921
    6066.2340  634080.440000  61850.910718  54282.935997
    6067.7290  636011.690000  62128.631888  54497.816883
    6069.2450  638466.000000  62490.367462  54785.843169
    6070.7830  640155.310000  62828.061874  55069.907235
    6072.3360  642584.560000  63314.692993  55508.231163
    6073.9100  644801.810000  63844.407993  55994.518290
    6075.5020  647232.060000  64434.995956  56545.430855
    6077.1140  649705.310000  64976.644559  57042.561995
    6078.7450  651741.560000  65491.286482  57510.555391
    6080.3960  654151.810000  66092.841959  58071.159700
    6082.0660  656657.000000  66782.415986  58727.776678
    6083.7560  659068.250000  67485.995019  59406.431514
    6085.4650  661279.440000  68169.517259  60068.621713
    6087.1910  664071.620000  68895.096361  60753.306280
    6088.9400  666320.810000  69557.534961  61390.165497
    6090.7050  668936.000000  70286.053271  62083.899647
    6092.4890  671724.190000  71044.527242  62805.397971
    6094.2960  674335.310000  71696.037407  63411.376143
    6096.1210  676533.500000  72166.429036  63823.870489
    6097.9650  679620.620000  72663.902232  64228.454609
    6099.8260  681986.750000  73061.257237  64539.402548
    6101.7090  684914.870000  73581.714691  64968.858375
    6103.6130  687716.000000  74152.068327  65459.246752
    6105.5330  690042.060000  74710.418397  65957.358656
    6107.4740  693034.190000  75406.790768  66583.142786
    6109.4310  696235.250000  76152.096191  67255.433187
    6111.4120  698692.310000  76791.384997  67835.941109
    6113.4090  701949.370000  77475.695360  68444.402880
    6115.4260  704535.440000  78036.029387  68919.181483
    6117.4640  707607.500000  78607.220685  69396.897468
    6119.5190  710514.560000  79183.539287  69881.289624
    6121.5970  712998.560000  79775.736216  70392.181642
    6123.6930  716153.620000  80497.948290  71025.729379
    6125.8050  719994.620000  81292.173073  71726.059952
    6127.9380  722323.620000  81880.368856  72239.469508
    6130.0910  725046.620000  82532.483582  72795.508454
    6132.2610  728906.620000  83256.618777  73409.777157
    6134.4530  731882.560000  83826.741196  73863.844846
    6136.6640  734498.560000  84315.864231  74234.250084
    6138.8930  738303.500000  84985.018386  74767.715936
    6141.1430  741933.500000  85608.075317  75259.023985
    6143.4140  744671.440000  86171.121227  75702.607193
    6145.7010  748566.370000  86925.190601  76331.551407
    6148.0070  751820.250000  87662.241594  76955.002362
    6150.3330  754891.190000  88462.224551  77651.511865
    6152.6800  758414.060000  89376.205568  78468.399515
    6155.0450  761355.000000  90164.225972  79159.906576
    6157.4280  765356.870000  90938.206079  79796.442382
    6159.8320  768451.750000  91501.171581  80209.340755
    6162.2560  771594.620000  92118.087013  80672.504805
    6164.6990  775913.500000  92957.002255  81358.827868
    6167.1600  779305.310000  93759.865811  82031.834262
    6169.6410  783090.190000  94777.768716  82948.768857
    6172.1410  786780.000000  95932.677246  84018.991853
    6174.6590  790039.810000  97084.558570  85098.059829
    6177.1980  793710.690000  98173.372675  86090.918060
    6179.7550  798525.440000  99272.126017  87043.807542
    6182.3340  801485.250000  100047.949782  87690.491161
    6184.9310  805245.060000  100990.722224  88489.106448
    6187.5470  808878.810000  102006.557824  89371.711293
    6190.1840  812882.620000  103049.321206  90285.712046
    6192.8400  816574.370000  104111.973910  91225.612107
    6195.5100  820785.120000  105378.786115  92369.556163
    6198.2050  824688.870000  106721.452017  93613.255115
    6200.9160  828903.620000  108167.168599  94961.969255
    6203.6480  832953.310000  109552.796205  96248.731145
    6206.4010  835785.060000  110627.474868  97217.075972
    6209.1700  840305.750000  111824.067874  98254.407884
    6211.9590  844367.440000  112898.677288  99166.866883
    6214.7710  848644.120000  113987.286806  100074.111143
    6217.5970  852887.810000  115019.883660  100915.427523
    6220.4460  857143.500000  115910.500878  101587.627297
    6223.3130  861323.120000  116777.068359  102228.429944
    6226.2000  865250.810000  117658.624471  102904.134175
    6229.1050  869484.440000  118661.089003  103699.597962
    6232.0310  873997.060000  119811.660237  104651.639137
    6234.9740  876255.690000  120378.137229  105129.511391
    6237.9380  872563.310000  121543.620286  106157.136163
    6240.9200  886128.940000  123745.058643  108074.961086
    6243.9220  871107.560000  122385.446207  106875.441631
    6246.9440  893294.120000  126285.963671  110278.434277
    6249.9840  898376.690000  127749.262613  111555.436642
    6253.0440  903687.310000  129300.661857  112901.719862
    6256.1250  908392.870000  130691.026525  114095.117123
    6259.2240  912673.370000  131953.430610  115143.440744
    6262.3390  917759.940000  133318.746760  116257.487751
    6265.4780  921703.500000  134595.042923  117326.094253
    6268.6340  926827.000000  136192.445320  118704.347232
    6271.8120  931158.560000  137717.649938  120040.906749
    6275.0070  935958.060000  139387.060023  121509.660242
    6278.2220  940642.560000  141060.265817  122985.088486
    6281.4540  945571.060000  142726.475702  124437.992705
    6284.7090  949766.500000  144213.691006  125715.040819
    6287.9810  955171.000000  145892.986247  127137.475093
    6291.2720  959687.440000  147371.063557  128365.626383
    6294.5840  964236.940000  148908.355475  129659.859065
    6297.9140  969110.370000  150498.408041  130993.985028
    6301.2630  974434.810000  152127.596729  132345.710896
    6304.6330  978879.250000  153591.778637  133532.967481
    6308.0210  984310.620000  155274.810491  134928.177449
    6311.4290  988545.060000  156941.986730  136347.179834
    6314.8540  993645.440000  158839.052770  138005.334861
    6318.3020  998733.870000  160792.119388  139707.164069
    6321.7650  1003594.200000  162692.194013  141363.308890
    6325.2520  1009237.600000  164845.137621  143256.835725
    6328.7570  1013844.000000  166876.217693  145049.030430
    6332.2790  1018928.300000  168937.135705  146862.954210
    6335.8220  1024540.700000  171060.226045  148698.444624
    6339.3830  1029426.000000  173010.042913  150375.596995
    6342.9650  1035414.400000  175109.065643  152147.479762
    6346.5640  1039578.700000  176822.926029  153555.384636
    6350.1860  1045194.000000  178819.835449  155211.436388
    6353.8250  1049759.300000  180632.788702  156693.721065
    6357.4850  1055951.600000  182814.619258  158509.119808
    6361.1630  1060913.900000  184807.544846  160164.591836
    6364.8590  1066278.100000  186901.446246  161916.529509
    6368.5740  1071223.400000  188972.336911  163646.667768
    6372.3100  1077139.600000  191300.078744  165610.689182
    6376.0670  1082893.900000  193723.769065  167678.838395
    6379.8400  1088279.100000  196099.644481  169717.606951
    6383.6340  1094369.400000  198565.413712  171815.235281
    6387.4470  1099006.600000  200691.109998  173572.288295
    6391.2790  1104086.900000  202846.987265  175340.524504
    6395.1320  1110261.000000  205258.549553  177321.700848
    6399.0030  1116269.300000  207743.349684  179386.684072
    6402.8920  1121490.400000  210152.990983  181428.818818
    6406.8010  1127043.600000  212700.739743  183587.996970
    6410.7320  1132822.800000  215296.435842  185772.953850
    6414.6800  1138623.900000  217872.865521  187928.375149
    6418.6460  1144401.000000  220451.482133  190086.196485
    6422.6340  1149519.300000  223018.144578  192248.774523
    6426.6390  1156100.400000  225970.824696  194739.213470
    6430.6670  1160944.500000  228508.218517  196877.218274
    6434.7080  1167070.500000  231310.980658  199231.057028
    6438.7740  1172607.600000  233900.372426  201379.576165
    6442.8590  1177942.800000  236636.878075  203664.372508
    6446.9600  1183754.900000  239519.488196  206090.209655
    6451.0830  1188940.900000  242420.831691  208590.664786
    6455.2240  1196452.000000  245952.343003  211643.718865
    6459.3830  1202008.000000  249007.936798  214265.257965
    6463.5620  1207957.100000  252160.266773  216931.332771
    6467.7610  1214153.100000  255317.808165  219608.447309
    6471.9830  1220038.100000  258413.074037  222207.797033
    6476.2180  1226415.300000  261563.426543  224820.341948
    6480.4770  1231703.300000  264489.958678  227242.763137
    6484.7510  1238473.300000  267830.331970  230024.308015
    6489.0470  1244327.300000  270971.687591  232623.773284
    6493.3630  1250044.300000  274037.037242  235136.752323
    6497.6980  1255712.100000  277128.168408  237652.661207
    6502.0500  1262163.100000  280516.423501  240450.025567
    6506.4220  1268270.100000  283947.716656  243287.950900
    6510.8160  1274437.100000  287381.002415  246143.591250
    6515.2290  1280636.000000  290723.344423  248871.004625
    6519.6600  1287184.000000  294143.624135  251631.386716
    6524.1070  1293124.900000  297579.665154  254460.030142
    6528.5810  1299992.800000  301405.943299  257623.213573
    6533.0690  1306079.800000  305123.133208  260700.231928
    6537.5760  1312662.600000  309022.123835  263958.072041
    6542.1030  1319010.500000  313024.390762  267317.960522
    6546.6480  1324357.400000  316755.327921  270437.073158
    6551.2140  1330352.300000  320763.494192  273810.886642
    6555.8010  1337267.100000  324965.600713  277344.199636
    6560.4060  1343770.000000  329224.660204  280909.337658
    6565.0290  1350881.800000  333686.804971  284668.499432
    6569.6720  1356929.600000  337893.845418  288190.747712
    6574.3340  1363361.500000  342148.762413  291732.305647
    6579.0180  1369131.300000  346183.066862  295034.981337
    6583.7180  1376650.100000  350679.732290  298704.910099
    6588.4380  1382658.900000  354820.015920  302056.040129
    6593.1790  1388418.600000  358868.734877  305313.549781
    6597.9370  1395497.400000  363375.665327  308973.801911
    6602.7150  1402395.300000  367844.752961  312602.051981
    6607.5150  1408114.000000  372124.508800  316072.146536
