# XDI/1.0
# Column.1: energy eV
# Column.2: i0
# Column.3: itrans
# Column.4: irefer
# Beamline.name: SSRL 2-3
# Beamline.notes: vert slits = 0.6mm
# Detector.I0: N2 15cm
# Detector.I1: N2 30cm
# Detector.I2: N2 15cm
# Element.edge: K
# Element.symbol: Cr
# Mono.d_spacing: 3.13550
# Mono.name: Si(111)
# Mono.notes: unfocused, detuned 75%, clockwise at E=5990eV
# Sample.formula: Cr2O3
# Sample.name: Cr2O3
# Sample.prep: powder on tape (5 layers)
# Sample.reference: Cr foil
# Sample.temperature: room temp
# Scan.start_time: 1997-04-17 17:30:13
# ///
#    Note: mono d_spacing is nominal!
#     exafs to K16
#     396  E XMU XMUR I0
#-------------
#   energy   i0   itrans  irefer
    5759.9890  26429.900000  9177.500997  1164.700468
    5769.9800  26398.900000  9365.496421  1195.699468
    5780.0070  26366.900000  9561.498251  1229.700244
    5790.0030  26332.900000  9753.500127  1261.700240
    5799.9650  26280.900000  9943.499684  1294.700041
    5810.0340  26257.900000  10154.500398  1328.699967
    5820.0000  26205.900000  10342.499554  1361.699533
    5830.0020  26152.900000  10546.500334  1397.700076
    5839.9710  26102.900000  10749.499757  1431.699527
    5849.9750  26043.900000  10948.500166  1468.699736
    5860.0160  25980.900000  11157.500392  1502.700695
    5870.0220  25930.900000  11369.499731  1541.699390
    5879.9930  25893.900000  11578.499880  1580.700210
    5890.0000  25823.900000  11783.499668  1619.700442
    5899.9710  25779.900000  12003.500535  1659.700756
    5909.9780  25737.900000  12225.499749  1699.700253
    5920.0210  25663.900000  12433.499906  1738.699526
    5930.0260  25610.900000  12649.499411  1779.699700
    5939.9950  25544.900000  12860.499869  1818.699323
    5949.9990  25487.900000  13078.499597  1860.699756
    5959.9650  25418.900000  13288.499897  1900.699529
    5969.9670  25342.900000  13493.500322  1941.700454
    5970.4870  25313.900000  13492.499683  1943.699181
    5971.0060  25306.900000  13498.500238  1942.699665
    5971.5260  25268.900000  13483.499661  1940.699918
    5971.9720  25162.900000  13438.499540  1935.699360
    5972.4920  25002.900000  13365.499440  1923.700583
    5973.0120  24931.900000  13337.499885  1920.699818
    5973.5320  25047.900000  13407.500534  1931.699705
    5973.9780  25190.900000  13500.499951  1944.699990
    5974.4980  25296.900000  13562.500370  1954.699862
    5975.0190  25348.900000  13603.500327  1960.699185
    5975.4640  25352.900000  13620.500152  1966.700021
    5975.9850  25364.900000  13636.500100  1966.700034
    5976.5060  25321.900000  13631.500585  1966.700635
    5977.0260  25339.900000  13651.500312  1969.700358
    5977.4730  25343.900000  13659.500269  1972.700211
    5977.9940  25342.900000  13671.500518  1973.700904
    5978.5150  25326.900000  13669.499978  1974.699178
    5979.0370  25339.900000  13689.500177  1975.700716
    5979.4830  25340.900000  13704.500619  1979.699947
    5980.0050  25364.900000  13726.499417  1981.700330
    5980.5260  25327.900000  13719.499677  1979.699677
    5980.9730  25337.900000  13733.499931  1982.699101
    5981.4950  25345.900000  13748.499368  1986.699425
    5982.0160  25380.900000  13779.500581  1991.700951
    5982.4630  25352.900000  13773.499528  1990.700172
    5982.9860  25363.900000  13788.499887  1991.700713
    5983.5070  25376.900000  13804.499799  1994.699897
    5984.0300  25397.900000  13831.499914  1997.700149
    5984.4770  25389.900000  13825.500609  1996.699879
    5984.9990  25394.900000  13842.499955  1998.699195
    5985.5210  25356.900000  13835.500409  1996.699929
    5985.9700  25233.900000  13775.499677  1986.699320
    5986.4920  24883.900000  13589.499623  1961.699929
    5987.0150  24078.900000  13160.500253  1898.700943
    5987.4630  22715.900000  12419.500022  1789.699663
    5987.9860  21981.900000  12022.499919  1728.700357
    5988.5090  23097.900000  12646.500092  1816.699702
    5989.0320  24008.900000  13144.499668  1884.699506
    5989.4800  24412.900000  13367.499910  1906.700728
    5990.0030  24731.900000  13535.500605  1915.699650
    5990.5260  24909.900000  13616.500302  1895.700287
    5990.9750  24951.900000  13610.500244  1848.699782
    5991.4990  25017.900000  13574.500488  1787.700342
    5992.0210  25044.900000  13476.499813  1733.699239
    5992.4710  25070.900000  13427.499573  1697.700708
    5992.9950  25059.900000  13454.500490  1672.699284
    5993.5180  25078.900000  13507.499573  1655.700290
    5993.9670  25101.900000  13489.500478  1634.700555
    5994.4920  25111.900000  13390.500496  1600.700806
    5995.0160  25091.900000  13248.500615  1568.700210
    5995.4650  25090.900000  13156.499967  1544.700330
    5995.9890  25121.900000  13108.500012  1534.699929
    5996.5140  25111.900000  13098.500230  1528.700056
    5996.9630  25106.900000  13124.499951  1531.700734
    5997.4880  25093.900000  13132.500195  1533.699957
    5998.0120  25112.900000  13133.500531  1530.700170
    5998.5380  25101.900000  13089.499455  1518.699445
    5998.9870  25088.900000  13025.500555  1495.699540
    5999.5130  25075.900000  12875.500577  1453.700429
    6000.0370  25086.900000  12636.500580  1398.700369
    6000.4870  25072.900000  12324.500375  1339.700634
    6001.0130  25014.900000  11796.499646  1254.700436
    6001.4620  24905.900000  11242.499815  1173.700083
    6001.9880  24755.900000  10535.500395  1081.699640
    6002.5130  24709.900000  9890.499729   998.699519
    6002.9640  24753.900000  9435.499819   940.700143
    6003.4900  24923.900000  9108.501266   896.700093
    6004.0160  25042.900000  8937.503988   870.700128
    6004.4660  25082.900000  8810.501295   848.699874
    6004.9930  25070.900000  8571.500553   816.700212
    6005.5180  25040.900000  8210.497251   774.699930
    6005.9700  25045.900000  7860.499401   735.699995
    6006.4960  25057.900000  7460.497844   691.700063
    6007.0220  25022.900000  7095.497341   652.700052
    6007.4730  24996.900000  6762.501170   617.700120
    6008.0000  25007.900000  6328.497049   573.699680
    6008.5260  25025.900000  5868.501315   527.700331
    6008.9780  25010.900000  5568.500067   494.700243
    6009.5040  24989.900000  5391.500560   472.700040
    6010.0320  25004.900000  5378.501510   467.700009
    6010.9360  25004.664000  5482.254204   468.465119
    6011.8390  25009.951000  5412.519985   461.758056
    6012.8180  25001.768000  5119.299137   443.581177
    6013.7980  25013.107000  4988.583329   443.931933
    6014.7780  25035.975000  5229.380347   476.811898
    6015.7580  25043.367000  5694.689091   525.222132
    6016.8150  25051.285000  6080.507261   563.160351
    6017.7960  25041.730000  6276.833498   579.627069
    6018.9290  25082.701000  6475.672125   590.624047
    6019.9860  25094.197000  6695.024404   602.148386
    6021.1200  25103.219000  6882.879421   613.202586
    6022.1770  25104.768000  6944.248675   617.785968
    6023.3880  25149.842000  6873.130053   613.896835
    6024.5220  25183.441000  6731.524731   607.539355
    6025.7330  25211.566000  6636.421301   600.707506
    6026.8690  25232.219000  6617.837862   597.408413
    6028.1570  25255.396000  6701.757704   599.634987
    6029.3690  25293.100000  6934.192657   615.392275
    6030.5820  25339.330000  7234.134558   638.677743
    6031.8720  25372.086000  7544.588817   662.492921
    6033.1610  25404.367000  7817.549079   684.836667
    6034.5280  25440.174000  8042.022273   703.708957
    6035.8190  25491.508000  8224.013721   719.111668
    6037.1870  25543.367000  8406.503852   734.041784
    6038.5550  25578.752000  8571.510803   746.501246
    6040.0000  25623.664000  8693.027778   752.489903
    6041.3700  25660.102000  8758.050498   754.007725
    6042.8160  25707.064000  8793.587986   759.053374
    6044.2640  25767.553000  8782.640167   762.630273
    6045.7120  25822.568000  8750.193709   763.733661
    6047.2370  25867.109000  8753.269073   766.368035
    6048.7630  25931.176000  8789.843888   773.529827
    6050.2890  26005.768000  8813.929428   781.220655
    6051.8160  26070.887000  8779.533298   786.442436
    6053.4220  26133.531000  8666.640260   784.190897
    6054.9510  26195.701000  8531.262122   779.468746
    6056.5570  26257.398000  8430.396269   781.277232
    6058.2410  26324.621000  8362.033682   782.612702
    6059.8490  26413.369000  8296.189255   780.478008
    6061.5350  26444.643000  8189.850180   773.872308
    6063.2220  26465.443000  8092.023669   766.795485
    6064.9100  26546.770000  8026.704804   760.247746
    6066.6760  26616.621000  7995.899680   752.229264
    6068.3650  26693.000000  8010.605560   745.738228
    6070.1330  26786.904000  8031.819671   737.777575
    6071.9020  26886.332000  8060.544043   732.345453
    6073.7490  26956.289000  8119.776492   731.441985
    6075.5210  27033.770000  8214.524149   742.068164
    6077.3690  27147.777000  8342.777250   761.222310
    6079.2200  27239.313000  8451.544965   781.906009
    6081.1490  27340.371000  8557.819283   804.118527
    6083.0020  27440.957000  8686.609294   829.860785
    6084.9340  27545.068000  8848.903027   856.130466
    6086.8660  27634.705000  9012.715471   878.931258
    6088.8000  27743.867000  9175.031313   893.259459
    6090.8130  27837.557000  9326.866256   894.117644
    6092.8270  27952.771000  9498.200276   891.502833
    6094.8430  28077.512000  9666.052175   886.418556
    6096.8590  28205.779000  9801.416206   879.864717
    6098.8780  28297.572000  9869.281021   869.836519
    6100.9750  28406.891000  9899.663400   861.338897
    6103.0750  28531.736000  9949.556841   867.370560
    6105.1750  28665.105000  10024.955451   884.931117
    6107.2770  28782.002000  10122.870412   910.019966
    6109.4590  28903.426000  10238.295337   943.637807
    6111.6430  29044.373000  10372.227111   980.785757
    6113.8270  29184.848000  10504.677882  1011.461860
    6116.0130  29300.848000  10607.628983  1031.667533
    6118.2800  29449.375000  10688.096948  1044.401180
    6120.4700  29537.426000  10738.067491  1047.664224
    6122.7400  29688.004000  10835.557188  1054.456068
    6125.0110  29820.107000  10949.544941  1062.776579
    6127.3630  29962.738000  11069.055728  1077.627045
    6129.6390  30089.895000  11170.072471  1095.006283
    6131.9950  30226.576000  11275.601560  1111.914426
    6134.3520  30409.783000  11380.637721  1130.350166
    6136.7900  30546.518000  11438.187088  1140.316097
    6139.1510  30689.775000  11487.245549  1144.810747
    6141.5940  30826.561000  11544.813500  1150.834451
    6144.0380  30987.873000  11598.893834  1155.387441
    6146.4840  31112.711000  11661.484046  1155.470303
    6148.9320  31279.074000  11757.584382  1159.079913
    6151.4620  31411.963000  11871.195357  1163.218704
    6153.9940  31539.377000  12026.315759  1173.887897
    6156.5280  31732.318000  12183.948111  1189.085301
    6159.0640  31871.785000  12257.091110  1192.812108
    6161.6030  32025.777000  12301.742386  1185.066522
    6164.2220  32182.297000  12350.905976  1176.852402
    6166.8440  32390.342000  12463.580005  1179.166452
    6169.4700  32530.912000  12584.763998  1192.007518
    6172.0960  32689.010000  12762.458551  1222.378970
    6174.8060  32871.633000  13016.662493  1263.278426
    6177.5170  33057.781000  13261.378913  1304.708925
    6180.2310  33214.453000  13431.603664  1338.667093
    6182.9480  33380.656000  13558.340195  1365.153492
    6185.6670  33568.379000  13694.586690  1388.170402
    6188.4690  33743.633000  13850.343693  1408.715150
    6191.2730  33921.410000  14022.610723  1428.788780
    6194.0810  34065.715000  14182.388570  1450.392128
    6196.8910  34175.547000  14378.677619  1475.524306
    6199.7030  34356.902000  14650.477519  1510.186163
    6202.5990  34581.781000  14959.784729  1546.375155
    6205.4980  34731.191000  15209.605351  1578.094583
    6208.3990  34912.125000  15417.935738  1608.341446
    6211.3040  35091.582000  15579.774593  1636.118343
    6214.2100  35294.570000  15739.126214  1664.425015
    6217.2020  35480.082000  15877.988334  1682.259396
    6220.1960  35680.117000  15981.359101  1688.622296
    6223.1930  35873.680000  16047.241714  1691.515680
    6226.1930  36080.770000  16132.634959  1695.936739
    6229.1960  36269.387000  16221.537785  1692.887841
    6232.2840  36465.527000  16358.951642  1695.368716
    6235.3750  36598.195000  16512.875703  1699.376505
    6238.4690  36949.387000  16811.311397  1719.913428
    6241.5650  36350.105000  16661.255475  1695.980420
    6244.7480  37097.352000  17122.710682  1738.574792
    6247.8520  37282.121000  17335.676127  1765.700653
    6251.0410  37608.418000  17619.152284  1813.354615
    6254.2330  37812.242000  17844.139101  1857.536435
    6257.4290  38022.590000  18052.636792  1905.247186
    6260.7100  38221.465000  18221.643098  1948.486795
    6263.9130  38445.863000  18388.160306  1977.255943
    6267.2020  38627.789000  18573.188081  2002.555349
    6270.4940  38862.242000  18819.729039  2031.382786
    6273.7900  39060.219000  19067.776807  2066.736581
    6277.1720  39275.727000  19345.338663  2101.622141
    6280.4750  39464.754000  19601.407400  2138.037538
    6283.8650  39684.313000  19853.987550  2170.980418
    6287.2580  39882.391000  20079.078416  2196.452147
    6290.6550  40103.000000  20291.679892  2222.453897
    6294.0560  40341.133000  20515.791741  2251.982453
    6297.5440  40542.793000  20735.413457  2287.041437
    6300.9540  40762.980000  20956.547274  2320.630965
    6304.4500  40977.691000  21157.189920  2350.746169
    6307.9500  41154.930000  21326.344203  2378.393181
    6311.5380  41391.691000  21567.008444  2408.566507
    6315.0470  41658.980000  21864.181537  2441.270869
    6318.5600  41830.797000  22145.865913  2469.502809
    6322.1610  42077.137000  22452.063583  2497.265989
    6325.7660  42315.004000  22780.767007  2530.554953
    6329.3750  42537.398000  23126.983251  2565.375962
    6333.0730  42736.316000  23459.711616  2603.723538
    6336.6910  42964.762000  23776.946846  2642.600556
    6340.3970  43192.730000  24079.695958  2680.005895
    6344.1090  43419.230000  24364.952591  2721.942366
    6347.8260  43629.254000  24613.721910  2761.406327
    6351.5460  43846.801000  24855.000581  2795.399312
    6355.2710  44098.875000  25125.791589  2837.924207
    6359.0850  44310.477000  25387.089318  2878.973337
    6362.8190  44585.602000  25692.899811  2927.555229
    6366.6450  44799.254000  25946.221381  2974.663691
    6370.4730  45046.434000  26242.051008  3022.303003
    6374.3070  45283.137000  26545.393015  3070.468671
    6378.2300  45496.367000  26880.243560  3119.165745
    6382.0750  45740.121000  27236.607543  3166.392521
    6386.0090  45950.406000  27570.481360  3208.144345
    6389.9480  46183.211000  27863.860700  3255.427273
    6393.8930  46404.547000  28150.757119  3296.239424
    6397.8420  46644.406000  28440.159290  3338.578795
    6401.8820  46866.793000  28761.074305  3379.449702
    6405.8430  47102.703000  29114.498720  3425.848876
    6409.8940  47335.141000  29473.435270  3476.775759
    6413.9500  47551.105000  29817.880413  3525.231921
    6418.0130  47782.594000  30147.835541  3578.218786
    6422.0810  48019.609000  30504.302777  3632.734783
    6426.1530  48239.148000  30886.277474  3681.775065
    6430.3180  48471.219000  31267.768266  3732.349019
    6434.4020  48671.809000  31616.767338  3778.452718
    6438.5790  48926.930000  31995.275800  3824.081320
    6442.7610  49162.574000  32362.292812  3871.240286
    6446.9490  49403.746000  32744.822281  3928.932857
    6451.2300  49622.441000  33148.861459  3991.145853
    6455.4300  49842.664000  33603.409132  4063.893581
    6459.7230  50066.414000  34066.472996  4138.170178
    6463.9340  50354.688000  34530.041839  4207.975794
    6468.2390  50500.488000  34906.124454  4269.306063
    6472.5500  50753.816000  35347.713455  4334.168180
    6476.9550  50987.668000  35770.820798  4395.562457
    6481.2780  51170.047000  36146.428293  4449.479581
    6485.6070  51444.949000  36577.554398  4522.928962
    6490.0310  51685.379000  36988.188682  4583.906751
    6494.4610  51886.336000  37363.331413  4640.414898
    6498.8980  52091.820000  37738.988232  4695.453643
    6503.3410  52303.828000  38139.151827  4755.017430
    6507.7900  52543.359000  38583.827595  4820.112242
    6512.3350  52738.422000  39006.010909  4890.730898
    6516.7970  52972.008000  39418.711829  4959.885338
    6521.3550  53219.117000  39820.914886  5024.566964
    6525.9200  53389.754000  40203.632607  5092.777476
    6530.4920  53670.918000  40704.859794  5167.512805
    6535.0690  53885.609000  41181.599719  5240.781078
    6539.6550  54077.824000  41641.846795  5312.580007
    6544.2470  54284.566000  42135.606815  5387.907824
    6548.9360  54430.832000  42595.876722  5453.760976
    6553.5410  54626.625000  43070.654763  5528.142706
    6558.2440  54851.945000  43588.944271  5605.058796
    6562.9540  55005.789000  44091.747536  5684.496940
    6567.6710  55227.160000  44627.058204  5767.469145
    6572.3950  55478.059000  45188.878662  5853.969682
    6577.2180  55700.480000  45695.209364  5938.998191
    6581.9560  55895.430000  46153.048896  6014.552947
    6586.7920  56083.902000  46620.404937  6091.639879
    6591.5460  56328.906000  47122.270867  6177.253353
    6596.3970  56489.430000  47555.642238  6245.401550
    6601.2570  56686.484000  48016.528956  6330.076396
    6606.1250  56909.063000  48515.920795  6409.274025
    6611.0910  57104.168000  49020.825045  6492.010122
    6615.9730  57306.797000  49570.239223  6580.269079
    6620.9550  57550.953000  50171.166769  6673.059795
    6625.8530  57759.637000  50724.600503  6762.373987
    6630.8500  57998.844000  51306.552821  6858.223748
    6635.8550  58150.578000  51812.007049  6938.599262
    6640.8690  58335.836000  52362.971313  7031.504450
    6645.8910  58543.625000  52961.450657  7133.937334
    6650.9190  58698.934000  53491.440825  7224.901903
    6655.9570  58889.773000  54068.941261  7328.390556
    6661.0960  59119.137000  54692.949060  7432.414699
    6666.1500  59333.027000  55289.469127  7535.961728
    6671.3050  59450.441000  55805.500015  7624.040139
    6676.4690  59661.383000  56383.039217  7719.645090
    6681.6420  59785.848000  56918.090036  7810.783020
    6686.8220  59944.844000  57454.651827  7907.454900
    6692.0110  59981.363000  57894.722813  7978.642126
    6697.3030  59782.406000  58110.304935  8033.369176
    6702.5090  57531.977000  56308.397761  7804.618587
    6707.7240  61866.074000  60934.999977  8468.401127
    6713.0420  61825.699000  61322.117014  8546.711401
    6718.3690  61677.848000  61606.738013  8602.554963
    6723.7050  61729.523000  62097.874989  8691.919224
    6729.0490  61699.723000  62511.520105  8769.816315
    6734.4030  61679.449000  62934.675777  8855.248163
    6739.7660  61547.703000  63274.339808  8927.200686
    6745.1370  62234.480000  64454.516015  9115.687195
    6750.6140  61230.785000  63902.202961  9062.697707
    6756.0030  58802.617000  61830.401720  8796.238445
    6761.4980  62108.973000  65799.109266  9385.315634
    6766.9060  63117.855000  67379.327894  9632.909058
    6772.4200  61627.262000  66277.054915  9502.042330
    6777.9430  63494.195000  68816.297173  9894.703306
    6783.4760  63532.656000  69346.039165  9997.889607
    6789.0180  63517.641000  69838.304781  10091.602459
    6794.5690  63501.152000  70328.072784  10190.847846
    6800.2280  63167.191000  70487.355323  10241.625391
    6805.7990  60542.754000  68079.142802  9910.927072
    6811.4770  66084.844000  74830.445802  10922.750672
    6817.0670  65217.461000  74430.257041  10888.111869
    6822.7650  65082.602000  74839.578031  10973.001680
    6828.4730  65139.270000  75471.416348  11102.429888
    6834.1900  65169.461000  76066.759535  11213.376204
    6839.9180  65293.184000  76772.611162  11357.847913
