# XDI/1.0
# Column.1: energy eV
# Column.2: i0
# Column.3: itrans
# Column.4: irefer
# Beamline.name: SSRL 2-3
# Beamline.notes: vert slits = 0.6mm
# Detector.I0: N2 15cm
# Detector.I1: N2 30cm
# Detector.I2: N2 15cm
# Element.edge: K
# Element.symbol: Cr
# Mono.d_spacing: 3.13550
# Mono.name: Si(111)
# Mono.notes: unfocused, detuned 75%, clockwise at E=5990eV
# Sample.formula: K2CrO4
# Sample.name: K2CrO4
# Sample.prep: powder on tape (5 layers)
# Sample.reference: Cr foil
# Sample.temperature: room temperature
# Scan.start_time: 1997-04-17 22:36:29
# ///
#    Note: mono d_spacing is nominal!
#     exafs to K16
#     396  E XMU XMUR I0
#-------------
#   energy   i0   itrans  irefer
    5759.9890  25253.900000  7299.498150   930.699895
    5769.9800  25243.900000  7459.501153   955.699775
    5780.0070  25223.900000  7623.502866   983.700260
    5790.0030  25189.900000  7776.498095  1009.699862
    5799.9650  25154.900000  7936.502671  1038.700807
    5810.0340  25112.900000  8094.498702  1065.699785
    5820.0000  25073.900000  8254.499656  1091.700382
    5830.0020  25028.900000  8416.500777  1119.700409
    5839.9710  24990.900000  8584.495768  1149.699678
    5849.9750  24945.900000  8754.496727  1177.700113
    5860.0160  24917.900000  8931.500597  1209.700031
    5870.0220  24872.900000  9100.495452  1241.699316
    5879.9930  24842.900000  9278.500015  1271.700393
    5890.0000  24806.900000  9460.500042  1304.700145
    5899.9710  24770.900000  9639.500357  1336.700517
    5909.9780  24732.900000  9822.499692  1369.699868
    5920.0210  24677.900000  9996.499746  1401.700309
    5930.0260  24631.900000  10173.499497  1433.699621
    5939.9950  24579.900000  10351.499990  1469.700202
    5949.9990  24520.900000  10523.499616  1499.699591
    5959.9650  24476.900000  10705.499867  1535.700480
    5969.9670  24398.900000  10872.499824  1565.699438
    5970.4870  24391.900000  10874.500120  1569.700144
    5971.0060  24345.900000  10870.499557  1569.700219
    5971.5260  24244.900000  10832.500123  1564.699646
    5971.9720  24102.900000  10773.499462  1553.700283
    5972.4920  24030.900000  10754.500329  1552.699924
    5973.0120  24129.900000  10813.499804  1561.700568
    5973.5320  24299.900000  10896.499982  1573.700158
    5973.9780  24383.900000  10941.499774  1580.700145
    5974.4980  24431.900000  10972.500141  1584.700064
    5975.0190  24447.900000  10986.499740  1587.699674
    5975.4640  24441.900000  10994.500274  1590.700003
    5975.9850  24434.900000  11000.500131  1591.700176
    5976.5060  24432.900000  11010.500240  1592.699515
    5977.0260  24441.900000  11025.500010  1595.700417
    5977.4730  24435.900000  11030.499992  1597.700108
    5977.9940  24421.900000  11032.500095  1596.700753
    5978.5150  24431.900000  11044.499878  1598.699611
    5979.0370  24443.900000  11057.499616  1601.700530
    5979.4830  24438.900000  11065.499614  1601.699295
    5980.0050  24429.900000  11070.499769  1600.699773
    5980.5260  24428.900000  11079.500041  1604.699574
    5980.9730  24444.900000  11090.500213  1606.700834
    5981.4950  24438.900000  11097.499638  1607.700384
    5982.0160  24441.900000  11104.500457  1608.700118
    5982.4630  24445.900000  11115.499800  1609.699495
    5982.9860  24448.900000  11130.500414  1612.700536
    5983.5070  24468.900000  11144.500232  1614.699907
    5984.0300  24455.900000  11146.500539  1614.700670
    5984.4770  24460.900000  11154.500228  1616.699983
    5984.9990  24438.900000  11150.499834  1614.700233
    5985.5210  24282.900000  11081.500529  1604.700442
    5985.9700  23979.900000  10945.499634  1583.699205
    5986.4920  23239.900000  10613.499505  1535.700654
    5987.0150  21748.900000  9932.499730  1435.699492
    5987.4630  21147.900000  9664.500305  1395.700458
    5987.9860  22171.900000  10131.500395  1459.700710
    5988.5090  23096.900000  10544.500131  1514.700015
    5989.0320  23559.900000  10740.499692  1533.699229
    5989.4800  23798.900000  10849.499622  1537.700258
    5990.0030  23974.900000  10908.500523  1521.700333
    5990.5260  24064.900000  10922.499623  1477.700033
    5990.9750  24110.900000  10896.499822  1437.700009
    5991.4990  24136.900000  10831.500371  1395.700709
    5992.0210  24139.900000  10690.499749  1350.699320
    5992.4710  24160.900000  10484.500503  1305.699646
    5992.9950  24183.900000  10070.499643  1237.699386
    5993.5180  24192.900000  9233.500247  1119.700458
    5993.9670  24187.900000  8003.496495   962.699952
    5994.4920  24198.900000  6355.497444   758.700011
    5995.0160  24220.900000  5943.498285   702.700083
    5995.4650  24210.900000  6998.500732   821.699884
    5995.9890  24191.900000  8656.503312  1012.700846
    5996.5140  24209.900000  9744.500167  1140.699922
    5996.9630  24217.900000  10184.499720  1191.700083
    5997.4880  24211.900000  10437.499558  1218.700403
    5998.0120  24200.900000  10566.500035  1226.699982
    5998.5380  24204.900000  10609.499638  1217.699949
    5998.9870  24208.900000  10594.500377  1197.699980
    5999.5130  24201.900000  10529.500009  1167.699814
    6000.0370  24163.900000  10401.499557  1129.699857
    6000.4870  24138.900000  10257.500018  1094.699774
    6001.0130  24026.900000  10029.499857  1046.700396
    6001.4620  23902.900000  9848.500307  1010.700031
    6001.9880  23812.900000  9697.500294   978.700263
    6002.5130  23900.900000  9681.499682   964.699925
    6002.9640  24037.900000  9746.500051   959.699803
    6003.4900  24159.900000  9838.499740   956.699665
    6004.0160  24188.900000  9882.500337   950.700260
    6004.4660  24189.900000  9884.500168   941.700393
    6004.9930  24196.900000  9854.500218   931.699656
    6005.5180  24183.900000  9772.500037   913.700285
    6005.9700  24163.900000  9652.500335   895.699756
    6006.4960  24170.900000  9498.500369   872.700310
    6007.0220  24174.900000  9280.499816   847.699902
    6007.4730  24165.900000  9023.499667   816.699753
    6008.0000  24151.900000  8616.500708   774.700367
    6008.5260  24164.900000  8123.500579   722.700179
    6008.9780  24160.900000  7697.500179   679.700257
    6009.5040  24163.900000  7261.502649   636.700303
    6010.0320  24141.900000  6901.500972   598.700336
    6010.9360  24153.664000  6510.258002   557.465360
    6011.8390  24156.951000  6337.524056   546.758083
    6012.8180  24150.768000  6274.295331   553.580655
    6013.7980  24140.107000  6291.582621   570.931894
    6014.7780  24144.975000  6343.377047   586.811452
    6015.7580  24170.367000  6347.686265   593.221977
    6016.8150  24194.285000  6279.506837   587.160219
    6017.7960  24194.730000  6139.834828   569.627205
    6018.9290  24203.701000  6013.672070   552.623995
    6019.9860  24240.197000  5967.023866   539.148243
    6021.1200  24267.219000  5906.883863   533.203262
    6022.1770  24275.768000  5811.249751   524.785669
    6023.3880  24292.842000  5718.129486   518.896799
    6024.5220  24323.441000  5698.520248   520.539001
    6025.7330  24369.566000  5721.425907   523.708032
    6026.8690  24387.219000  5733.838396   521.408322
    6028.1570  24414.396000  5730.758860   517.634936
    6029.3690  24440.100000  5711.188959   511.392044
    6030.5820  24481.330000  5706.134283   507.677836
    6031.8720  24525.086000  5705.584957   505.492798
    6033.1610  24559.367000  5705.549681   504.837002
    6034.5280  24592.174000  5694.024333   502.709034
    6035.8190  24639.508000  5650.009186   499.110967
    6037.1870  24683.367000  5581.505908   491.042113
    6038.5550  24734.752000  5517.513017   484.501001
    6040.0000  24768.664000  5478.028677   478.490131
    6041.3700  24799.102000  5491.055210   479.008203
    6042.8160  24865.064000  5581.590469   490.054223
    6044.2640  24923.553000  5730.640245   504.630026
    6045.7120  24975.568000  5906.196577   520.733995
    6047.2370  25030.109000  6121.263076   544.368136
    6048.7630  25091.176000  6296.841954   560.529857
    6050.2890  25162.768000  6405.932036   575.221233
    6051.8160  25237.887000  6520.534283   590.442111
    6053.4220  25299.531000  6657.645264   610.191070
    6054.9510  25344.701000  6753.262184   624.469165
    6056.5570  25403.398000  6845.393502   640.277210
    6058.2410  25484.621000  6955.037187   656.613425
    6059.8490  25556.369000  7070.184399   672.477626
    6061.5350  25601.643000  7176.849720   683.872029
    6063.2220  25635.443000  7279.017441   694.794532
    6064.9100  25688.770000  7375.700874   701.247723
    6066.6760  25767.621000  7468.899784   705.229289
    6068.3650  25879.000000  7550.598480   705.737325
    6070.1330  25968.904000  7604.816695   701.777289
    6071.9020  26035.332000  7635.539049   697.344687
    6073.7490  26111.289000  7655.778710   696.442357
    6075.5210  26198.770000  7675.523220   703.068089
    6077.3690  26300.777000  7694.774657   712.222072
    6079.2200  26402.313000  7709.540747   723.905529
    6081.1490  26502.371000  7735.817762   736.118771
    6083.0020  26603.957000  7771.607000   749.860540
    6084.9340  26698.068000  7809.908150   762.131019
    6086.8660  26788.705000  7860.713225   770.930805
    6088.8000  26896.867000  7920.036476   774.260276
    6090.8130  27001.557000  7988.863673   768.116804
    6092.8270  27130.771000  8053.200137   757.502490
    6094.8430  27228.512000  8105.052718   743.419091
    6096.8590  27336.779000  8150.416348   732.864106
    6098.8780  27443.572000  8188.280866   723.837014
    6100.9750  27549.891000  8219.666029   719.339089
    6103.0750  27682.736000  8254.553354   724.370679
    6105.1750  27803.105000  8284.959024   738.931323
    6107.2770  27942.002000  8317.868273   758.019631
    6109.4590  28059.426000  8350.292918   779.638146
    6111.6430  28175.373000  8393.228909   799.786308
    6113.8270  28281.848000  8422.672571   815.460891
    6116.0130  28408.848000  8453.627557   828.667447
    6118.2800  28538.375000  8481.095882   833.401027
    6120.4700  28663.426000  8511.063919   836.663730
    6122.7400  28805.004000  8562.550677   839.455444
    6125.0110  28949.107000  8628.549006   844.776957
    6127.3630  29072.738000  8704.054021   853.626868
    6129.6390  29235.895000  8803.076258   872.006183
    6131.9950  29337.576000  8899.598396   886.913476
    6134.3520  29496.783000  9028.635120   903.349467
    6136.7900  29648.518000  9163.187890   919.316464
    6139.1510  29778.775000  9284.245129   930.810927
    6141.5940  29939.561000  9419.817514   944.834703
    6144.0380  30091.873000  9555.893985   958.387720
    6146.4840  30229.711000  9681.484517   966.470260
    6148.9320  30384.074000  9806.580006   973.079581
    6151.4620  30546.963000  9941.195349   980.219522
    6153.9940  30707.377000  10072.318503   988.888117
    6156.5280  30878.318000  10203.943414  1002.084424
    6159.0640  31023.785000  10327.086165  1009.811993
    6161.6030  31188.777000  10458.743410  1013.066955
    6164.2220  31356.297000  10585.901918  1013.851159
    6166.8440  31512.342000  10721.577274  1021.166170
    6169.4700  31673.912000  10852.759471  1040.006930
    6172.0960  31824.010000  10986.453747  1064.378474
    6174.8060  31992.631000  11125.664928  1093.279172
    6177.5170  32156.781000  11256.383005  1117.709326
    6180.2310  32360.455000  11402.608587  1143.667441
    6182.9480  32515.654000  11528.343265  1167.154383
    6185.6670  32692.381000  11657.585148  1189.169369
    6188.4690  32870.633000  11789.338961  1205.714871
    6191.2730  33039.410000  11915.607452  1221.788894
    6194.0810  33228.715000  12047.394491  1236.393176
    6196.8910  33390.547000  12162.675001  1254.523521
    6199.7030  33575.902000  12293.474674  1272.185907
    6202.5990  33772.781000  12425.785412  1289.375229
    6205.4980  33966.191000  12550.604698  1309.093414
    6208.3990  34150.125000  12681.936350  1329.341420
    6211.3040  34301.582000  12798.775158  1350.118647
    6214.2100  34523.570000  12941.126995  1374.424886
    6217.2020  34719.082000  13071.988382  1390.258428
    6220.1960  34915.117000  13212.359104  1402.622484
    6223.1930  35116.680000  13349.242361  1409.516350
    6226.1930  35288.770000  13472.634890  1414.936400
    6229.1960  35487.387000  13611.538302  1423.887543
    6232.2840  35701.527000  13755.951420  1428.368039
    6235.3750  35663.195000  13800.875119  1423.376697
    6238.4690  36180.387000  14078.309455  1444.913237
    6241.5650  35362.105000  13834.255051  1415.979852
    6244.7480  36331.352000  14283.710470  1462.575262
    6247.8520  36643.121000  14482.676576  1487.699871
    6251.0410  36883.418000  14652.151333  1518.354486
    6254.2330  37092.242000  14831.138707  1555.535621
    6257.4290  37294.590000  15005.636181  1596.246405
    6260.7100  37520.465000  15189.643052  1635.487324
    6263.9130  37731.863000  15373.159665  1662.256655
    6267.2020  37938.789000  15567.187679  1685.555773
    6270.4940  38161.242000  15761.727529  1710.381924
    6273.7900  38348.219000  15946.777737  1733.736292
    6277.1720  38573.727000  16151.336426  1763.622261
    6280.4750  38796.754000  16354.406690  1793.036199
    6283.8650  39020.313000  16562.987822  1815.980526
    6287.2580  39258.391000  16791.078519  1843.451638
    6290.6550  39467.000000  16999.679309  1869.452262
    6294.0560  39680.133000  17219.790524  1895.982804
    6297.5440  39907.793000  17438.414770  1930.041525
    6300.9540  40116.980000  17647.546868  1961.630051
    6304.4500  40324.691000  17870.188209  1994.746274
    6307.9500  40563.930000  18105.344086  2023.391670
    6311.5380  40783.691000  18326.008330  2051.565727
    6315.0470  41002.980000  18559.181886  2078.271725
    6318.5600  41228.797000  18790.867274  2099.503669
    6322.1610  41445.137000  19018.063777  2118.264778
    6325.7660  41675.004000  19257.768247  2141.555694
    6329.3750  41922.398000  19502.983280  2170.373869
    6333.0730  42148.316000  19746.710709  2199.724073
    6336.6910  42378.762000  19985.946279  2226.601296
    6340.3970  42625.730000  20229.694739  2260.006211
    6344.1090  42869.230000  20479.953285  2294.944176
    6347.8260  43074.254000  20703.723506  2329.406615
    6351.5460  43315.801000  20951.999589  2368.401104
    6355.2710  43575.875000  21212.791482  2406.923489
    6359.0850  43815.477000  21465.090356  2447.974410
    6362.8190  44033.602000  21695.900470  2489.553368
    6366.6450  44251.254000  21942.221651  2531.663787
    6370.4730  44492.434000  22192.050790  2571.301400
    6374.3070  44724.137000  22445.391922  2609.467907
    6378.2300  44969.367000  22710.244554  2642.166236
    6382.0750  45240.121000  22988.606552  2681.391097
    6386.0090  45470.406000  23258.480001  2718.145365
    6389.9480  45702.211000  23521.861786  2755.426603
    6393.8930  45923.547000  23783.755177  2796.237580
    6397.8420  46187.406000  24073.160881  2833.578962
    6401.8820  46434.793000  24362.075184  2869.447858
    6405.8430  46671.703000  24654.497780  2907.848177
    6409.8940  46893.141000  24932.433783  2949.776832
    6413.9500  47154.105000  25244.880126  2995.234027
    6418.0130  47378.594000  25528.835656  3035.219131
    6422.0810  47604.609000  25835.302854  3084.732317
    6426.1530  47841.148000  26136.277872  3127.776304
    6430.3180  48068.219000  26443.768394  3170.348539
    6434.4020  48299.809000  26755.766125  3205.451667
    6438.5790  48546.930000  27082.275111  3245.081479
    6442.7610  48800.574000  27427.291974  3292.241287
    6446.9490  49034.746000  27758.823368  3339.929667
    6451.2300  49273.441000  28096.862457  3395.146507
    6455.4300  49531.664000  28456.412820  3449.894124
    6459.7230  49751.414000  28808.474154  3508.170180
    6463.9340  50059.688000  29200.045090  3567.975162
    6468.2390  50255.488000  29543.124842  3617.307827
    6472.5500  50478.816000  29891.718331  3668.168397
    6476.9550  50750.668000  30274.821104  3724.562445
    6481.2780  50985.047000  30643.433367  3782.481946
    6485.6070  51215.949000  31010.553668  3834.931556
    6490.0310  51463.379000  31406.188747  3897.907877
    6494.4610  51712.336000  31792.333010  3949.413790
    6498.8980  51950.820000  32186.988976  4009.450910
    6503.3410  52180.828000  32560.153247  4060.017353
    6507.7900  52438.359000  32958.828638  4122.109989
    6512.3350  52641.422000  33331.013514  4182.734839
    6516.7970  52884.008000  33719.711823  4244.884398
    6521.3550  53143.117000  34139.913886  4309.565966
    6525.9200  53387.754000  34542.632777  4377.778018
    6530.4920  53632.918000  34938.858063  4441.515386
    6535.0690  53857.609000  35351.597898  4501.783239
    6539.6550  54070.824000  35737.849698  4562.580410
    6544.2470  54257.566000  36114.604782  4616.903989
    6548.9360  54483.832000  36527.876072  4673.759113
    6553.5410  54674.625000  36907.655949  4732.142254
    6558.2440  54923.945000  37337.945310  4797.059423
    6562.9540  55096.789000  37727.747761  4860.497693
    6567.6710  55370.160000  38183.058424  4930.468039
    6572.3950  55624.059000  38621.878773  4998.970161
    6577.2180  55839.480000  39050.209691  5074.993510
    6581.9560  56050.430000  39472.049791  5147.554879
    6586.7920  56339.902000  39955.407630  5224.640664
    6591.5460  56551.906000  40380.270296  5292.254342
    6596.3970  56747.430000  40818.641191  5368.399766
    6601.2570  57005.484000  41306.528963  5447.073945
    6606.1250  57238.063000  41775.920717  5520.277408
    6611.0910  57455.168000  42225.823144  5593.006381
    6615.9730  57706.797000  42708.239559  5674.269687
    6620.9550  57937.953000  43195.169077  5747.055646
    6625.8530  58145.637000  43640.601585  5817.373935
    6630.8500  58426.844000  44182.551193  5902.222304
    6635.8550  58606.578000  44629.007627  5982.598724
    6640.8690  58814.836000  45118.972576  6062.503515
    6645.8910  59080.625000  45637.453883  6149.936377
    6650.9190  59287.934000  46139.439803  6232.896244
    6655.9570  59509.773000  46628.938729  6317.391282
    6661.0960  59734.137000  47170.946651  6409.409635
    6666.1500  59939.027000  47674.469732  6492.963349
    6671.3050  60108.441000  48159.498172  6573.039646
    6676.4690  60316.383000  48689.040241  6661.648380
    6681.6420  60514.848000  49219.090002  6750.783393
    6686.8220  60687.844000  49715.652066  6841.450800
    6692.0110  60727.363000  50119.722197  6915.647427
    6697.3030  60625.406000  50405.305941  6967.367380
    6702.5090  57845.977000  48370.397722  6710.617740
    6707.7240  63076.074000  53192.000672  7391.398962
    6713.0420  62497.699000  53116.118923  7395.712497
    6718.3690  62444.848000  53478.736974  7466.558139
    6723.7050  62379.523000  53824.877345  7533.922063
    6729.0490  62451.723000  54273.518883  7618.819422
    6734.4030  62477.449000  54696.677962  7700.243684
    6739.7660  63144.703000  55689.341081  7859.199572
    6745.1370  62988.480000  55954.516342  7921.686717
    6750.6140  62163.785000  55703.205545  7907.697842
    6756.0030  62502.617000  56371.399446  8026.238023
    6761.4980  62780.973000  57003.108980  8136.310403
    6766.9060  63963.855000  58537.328116  8377.911325
    6772.4200  62665.262000  57751.055080  8287.038097
    6777.9430  64500.195000  59890.292909  8614.694751
    6783.4760  64543.656000  60369.043098  8708.890863
    6789.0180  64583.641000  60854.301273  8800.605302
    6794.5690  64603.152000  61299.070039  8888.849910
    6800.2280  64247.191000  61432.352065  8934.619863
    6805.7990  61980.754000  59702.144886  8711.926487
    6811.4770  66831.844000  64883.444813  9487.759589
    6817.0670  66338.461000  64842.258268  9508.113860
    6822.7650  66354.602000  65357.578279  9604.006910
    6828.4730  66432.273000  65916.413981  9714.430734
    6834.1900  66517.461000  66499.757998  9830.377227
    6839.9180  66661.180000  67122.609028  9943.846648
    6845.6560  66795.430000  67765.977013  10061.852119
