# XDI/1.0
# Column.1: energy eV
# Column.2: i0
# Column.3: itrans
# Column.4: irefer
# Beamline.name: SSRL 2-3
# Beamline.notes: vert slits = 0.6mm
# Detector.I0: N2 15cm
# Detector.I1: N2 30cm
# Detector.I2: N2 15cm
# Element.edge: K
# Element.symbol: Cr
# Mono.d_spacing: 3.13550
# Mono.name: Si(111)
# Mono.notes: unfocused, detuned 75%, clockwise at E=5990eV
# Sample.formula: K2CrO4
# Sample.name: K2CrO4
# Sample.prep: powder on tape (4 layers)
# Sample.reference: Cr foil
# Sample.temperature: 15K
# Scan.start_time: 1997-04-18 11:01:58
# ///
#    Note: mono d_spacing is nominal!
#     exafs to K16
#     396  E XMU XMUR I0
#-------------
#   energy   i0   itrans  irefer
    5759.9890  168035.800000  3288.699020   427.299995
    5769.9800  167563.800000  3360.699626   439.299957
    5780.0070  166920.800000  3426.699142   449.299960
    5790.0030  166273.800000  3496.700562   461.300238
    5799.9650  165584.800000  3561.701750   472.300166
    5810.0340  164980.800000  3635.701595   484.300403
    5820.0000  164292.800000  3704.699696   497.300007
    5830.0020  163742.800000  3777.698282   509.299974
    5839.9710  162889.800000  3845.700990   522.300022
    5849.9750  162190.800000  3919.701175   533.300310
    5860.0160  161583.800000  3994.701642   547.300041
    5870.0220  160762.800000  4062.700851   559.300148
    5879.9930  160182.800000  4138.699728   572.299778
    5890.0000  159481.800000  4213.698683   585.299738
    5899.9710  158680.800000  4284.700425   600.300232
    5909.9780  158013.800000  4364.699618   612.300178
    5920.0210  157234.800000  4435.699072   626.300012
    5930.0260  156506.800000  4515.701110   640.299950
    5939.9950  155763.800000  4586.699752   655.299928
    5949.9990  155107.800000  4665.702251   670.300177
    5959.9650  154444.800000  4741.700141   684.299734
    5969.9670  153503.800000  4811.699376   696.300000
    5970.4870  153468.800000  4812.700153   697.299884
    5971.0060  153110.800000  4806.700309   696.300362
    5971.5260  152814.800000  4798.698478   694.299907
    5971.9720  152343.800000  4789.700143   694.299961
    5972.4920  151277.800000  4762.700702   689.300393
    5973.0120  150759.800000  4748.699741   687.300167
    5973.5320  151842.800000  4782.697774   693.299479
    5973.9780  152974.800000  4828.699622   698.299770
    5974.4980  153657.800000  4852.699034   703.299851
    5975.0190  153622.800000  4857.700837   706.300318
    5975.4640  153535.800000  4856.697910   705.299858
    5975.9850  153520.800000  4861.699474   706.300187
    5976.5060  153581.800000  4867.698919   707.299787
    5977.0260  153465.800000  4867.700947   706.299960
    5977.4730  153345.800000  4866.702008   706.300498
    5977.9940  153299.800000  4872.701379   709.300136
    5978.5150  153226.800000  4874.698112   708.299804
    5979.0370  153409.800000  4884.699517   709.299633
    5979.4830  153260.800000  4886.699103   709.299827
    5980.0050  153087.800000  4881.700455   709.300230
    5980.5260  153219.800000  4891.698045   710.299542
    5980.9730  153248.800000  4893.700396   712.299895
    5981.4950  153302.800000  4899.700352   712.300113
    5982.0160  153050.800000  4895.698157   709.299719
    5982.4630  153194.800000  4905.697644   712.299588
    5982.9860  153265.800000  4909.699160   712.299841
    5983.5070  153395.800000  4916.699682   713.299785
    5984.0300  153406.800000  4920.702065   714.300324
    5984.4770  153361.800000  4925.702164   715.300057
    5984.9990  153466.800000  4929.700605   716.300331
    5985.5210  153343.800000  4927.700550   716.299760
    5985.9700  152630.800000  4907.697708   713.299374
    5986.4920  150145.800000  4832.702437   702.300307
    5987.0150  144944.800000  4664.702131   676.300335
    5987.4630  137768.800000  4433.702075   643.300012
    5987.9860  134479.800000  4330.699178   627.299615
    5988.5090  140083.800000  4512.700771   653.300426
    5989.0320  144456.800000  4652.699091   670.299602
    5989.4800  147102.800000  4732.699044   678.300185
    5990.0030  148915.800000  4781.699588   679.299639
    5990.5260  149840.800000  4801.701802   669.300191
    5990.9750  150056.800000  4798.699238   651.299871
    5991.4990  150345.800000  4778.702061   631.300043
    5992.0210  150615.800000  4745.701322   613.300178
    5992.4710  150671.800000  4689.701627   595.300453
    5992.9950  150747.800000  4564.702042   570.299990
    5993.5180  150756.800000  4332.700165   534.299862
    5993.9670  150822.800000  3984.698449   486.299611
    5994.4920  150865.800000  3290.701289   399.299986
    5995.0160  150871.800000  2577.699848   311.299898
    5995.4650  150817.800000  2508.699486   300.299937
    5995.9890  150710.800000  3134.700918   372.300025
    5996.5140  150804.800000  3869.701163   455.300010
    5996.9630  150761.800000  4244.699838   499.300134
    5997.4880  150619.800000  4468.701083   525.300279
    5998.0120  150557.800000  4577.701717   537.300400
    5998.5380  150554.800000  4630.700430   539.300223
    5998.9870  150652.800000  4647.701757   535.300425
    5999.5130  150422.800000  4630.699774   525.299867
    6000.0370  150295.800000  4595.701234   510.299920
    6000.4870  150140.800000  4542.699871   496.300108
    6001.0130  149955.800000  4459.700378   476.299979
    6001.4620  149144.800000  4359.701737   459.300153
    6001.9880  147926.800000  4252.702048   438.300100
    6002.5130  147825.800000  4202.701587   427.300209
    6002.9640  148959.800000  4220.702025   424.299999
    6003.4900  150226.800000  4266.701952   424.300288
    6004.0160  150419.800000  4297.700240   421.300068
    6004.4660  150421.800000  4313.701481   418.300313
    6004.9930  150360.800000  4319.699066   414.299863
    6005.5180  150262.800000  4304.701343   409.300269
    6005.9700  150184.800000  4268.700873   403.300046
    6006.4960  150033.800000  4201.701667   392.300011
    6007.0220  149915.800000  4117.700198   382.300169
    6007.4730  149972.800000  4037.698875   372.299718
    6008.0000  150025.800000  3903.701788   356.300173
    6008.5260  149998.800000  3705.700442   335.299973
    6008.9780  149810.800000  3494.698705   314.299843
    6009.5040  149795.800000  3242.699083   290.299838
    6010.0320  149860.800000  3020.700817   267.300139
    6010.9360  149789.560000  2766.456822   244.064041
    6011.8390  149712.840000  2637.725675   232.357780
    6012.8180  149552.640000  2604.509688   233.180940
    6013.7980  149518.950000  2610.809015   239.534012
    6014.7780  149613.800000  2649.620196   248.414963
    6015.7580  149644.160000  2680.944638   254.825880
    6016.8150  149486.030000  2668.784015   252.765005
    6017.7960  149553.420000  2628.135484   248.234021
    6018.9290  149660.340000  2526.000764   237.232958
    6019.9860  149790.780000  2475.379012   229.759888
    6021.1200  149726.730000  2478.272717   227.816872
    6022.1770  149809.200000  2466.678440   228.401892
    6023.3880  149883.200000  2407.599816   222.518135
    6024.5220  150098.720000  2359.033995   220.162187
    6025.7330  150270.750000  2360.979717   220.334963
    6026.8690  150281.300000  2368.440854   221.037893
    6028.1570  150345.370000  2373.415636   220.270072
    6029.3690  150441.970000  2357.902443   217.030893
    6030.5820  150645.080000  2337.905882   214.320999
    6031.8720  150934.700000  2341.419321   212.140878
    6033.1610  150922.860000  2351.449262   212.490042
    6034.5280  150995.530000  2362.991105   214.367003
    6035.8190  151284.720000  2363.046377   214.773912
    6037.1870  151601.420000  2340.617632   211.710996
    6038.5550  151806.660000  2303.700487   208.176029
    6040.0000  152007.410000  2264.296851   203.170911
    6041.3700  152186.670000  2252.407985   200.695160
    6042.8160  152394.450000  2273.031096   202.747934
    6044.2640  152740.770000  2323.168928   206.330953
    6045.7120  153079.590000  2392.820946   214.441990
    6047.2370  153337.940000  2489.983898   224.083001
    6048.7630  153680.800000  2581.662895   233.251904
    6050.2890  153801.190000  2636.854671   238.951851
    6051.8160  154196.090000  2684.560706   244.180910
    6053.4220  154560.520000  2741.781070   253.938221
    6054.9510  155007.450000  2783.514061   261.225093
    6056.5570  155309.920000  2816.760891   266.041120
    6058.2410  155594.910000  2853.518799   272.386000
    6059.8490  155791.410000  2902.791897   277.259884
    6061.5350  155888.420000  2958.580211   283.663811
    6063.2220  156186.970000  3021.881997   290.597194
    6064.9100  156588.030000  3077.696242   296.058960
    6066.6760  157026.610000  3128.023331   297.050025
    6068.3650  157484.700000  3170.864649   299.569843
    6070.1330  157890.330000  3203.220398   298.620924
    6071.9020  158123.470000  3206.090184   296.198981
    6073.7490  158792.120000  3203.474255   293.307106
    6075.5210  159322.300000  3199.367694   291.943845
    6077.3690  159857.000000  3195.778326   296.111166
    6079.2200  160364.220000  3191.702914   299.806984
    6081.1490  160828.950000  3181.139220   303.031166
    6083.0020  161254.200000  3180.088421   306.785952
    6084.9340  161816.980000  3191.553994   314.069162
    6086.8660  162261.280000  3209.531176   316.881268
    6088.8000  162826.090000  3237.021765   318.223185
    6090.8130  163358.420000  3275.025589   318.094008
    6092.8270  163837.280000  3322.543952   316.493916
    6094.8430  164616.660000  3368.577331   313.423019
    6096.8590  165174.550000  3401.123416   309.882153
    6098.8780  165705.950000  3423.183041   306.869971
    6100.9750  166308.890000  3435.755497   306.387034
    6103.0750  166858.340000  3445.841663   307.433089
    6105.1750  167537.310000  3457.442219   312.008163
    6107.2770  168078.810000  3446.554294   318.111915
    6109.4590  168669.810000  3436.182156   324.745986
    6111.6430  169113.340000  3434.324111   331.909194
    6113.8270  169782.390000  3452.976312   338.600802
    6116.0130  170511.970000  3477.144808   344.822151
    6118.2800  171317.050000  3492.828734   348.573186
    6120.4700  171938.660000  3497.022126   348.853151
    6122.7400  172676.780000  3500.730018   348.661941
    6125.0110  173277.440000  3506.954543   347.999933
    6127.3630  174059.590000  3532.690323   351.867960
    6129.6390  174780.280000  3572.939485   358.263920
    6131.9950  175479.480000  3620.702664   365.189863
    6134.3520  176164.220000  3673.980313   373.645283
    6136.7900  176893.450000  3746.771643   381.629351
    6139.1510  177484.220000  3821.074644   388.143060
    6141.5940  178142.500000  3885.892907   393.185327
    6144.0380  178965.310000  3939.221001   398.756625
    6146.4840  179709.620000  3988.069687   403.858111
    6148.9320  180495.470000  4032.428018   404.488360
    6151.4620  181228.830000  4080.299885   406.648333
    6153.9940  181930.720000  4128.685004   410.335958
    6156.5280  182603.110000  4168.582291   414.554015
    6159.0640  183392.030000  4210.995590   417.302084
    6161.6030  184259.470000  4254.924114   417.578356
    6164.2220  185112.440000  4301.360742   418.382758
    6166.8440  185846.910000  4341.314881   421.717876
    6169.4700  186676.910000  4388.784759   427.582241
    6172.0960  187285.420000  4443.763993   437.975093
    6174.8060  188298.470000  4517.258622   449.896965
    6177.5170  189096.020000  4585.265125   462.348626
    6180.2310  189784.090000  4653.790541   474.329077
    6182.9480  190126.690000  4702.826164   483.839344
    6185.6670  191080.810000  4754.371105   492.878014
    6188.4690  192037.450000  4801.437754   498.447209
    6191.2730  192821.590000  4848.010222   503.543768
    6194.0810  193752.280000  4900.099132   511.169744
    6196.8910  194518.470000  4945.703006   518.327042
    6199.7030  195463.190000  4988.823325   522.012406
    6202.5990  197019.410000  5054.451053   531.227056
    6205.4980  197405.170000  5088.597830   534.969960
    6208.3990  198153.440000  5132.252672   542.242847
    6211.3040  199292.230000  5182.425760   551.043922
    6214.2100  200232.550000  5227.109462   559.375912
    6217.2020  201092.370000  5273.305285   565.235599
    6220.1960  202165.720000  5333.020401   571.624917
    6223.1930  202939.590000  5387.246218   574.543968
    6226.1930  203916.980000  5442.986778   578.992329
    6229.1960  204795.890000  5495.237591   580.969990
    6232.2840  205853.310000  5558.002759   584.476811
    6235.3750  206044.270000  5595.283712   581.511837
    6238.4690  208349.730000  5684.078734   590.075999
    6241.5650  204510.720000  5601.387835   579.170944
    6244.7480  207862.220000  5721.205051   589.793653
    6247.8520  209895.250000  5812.539675   599.946135
    6251.0410  211007.800000  5876.392773   610.628270
    6254.2330  212005.860000  5941.751266   625.839028
    6257.4290  213033.440000  6010.627478   642.579425
    6260.7100  213923.550000  6083.016502   655.847956
    6263.9130  214487.170000  6144.915077   667.646073
    6267.2020  215539.310000  6223.331074   677.973760
    6270.4940  216623.970000  6299.265210   686.831005
    6273.7900  217358.160000  6368.707214   695.216827
    6277.1720  218410.860000  6447.664472   709.132397
    6280.4750  219557.080000  6525.132401   719.576988
    6283.8650  220603.810000  6597.114640   728.550291
    6287.2580  221514.080000  6665.614544   737.052727
    6290.6550  222196.860000  6740.625641   745.085536
    6294.0560  223429.160000  6832.149963   756.646134
    6297.5440  224560.970000  6925.188359   768.736710
    6300.9540  225420.310000  7008.745343   782.357645
    6304.4500  226150.170000  7093.807693   793.505544
    6307.9500  227378.550000  7193.387848   806.185229
    6311.5380  228228.450000  7281.479729   816.391794
    6315.0470  229407.860000  7376.088373   824.127908
    6318.5600  230143.800000  7449.205117   832.393770
    6322.1610  231004.250000  7525.837564   838.187974
    6325.7660  232107.230000  7612.985922   849.512574
    6329.3750  233327.720000  7711.648585   858.365730
    6333.0730  234298.730000  7808.820476   869.748600
    6336.6910  235206.270000  7899.511119   878.660996
    6340.3970  236060.330000  7986.713975   889.101753
    6344.1090  236731.890000  8054.429874   900.071778
    6347.8260  238153.980000  8154.659154   914.571563
    6351.5460  239088.590000  8244.399759   930.599900
    6355.2710  239799.730000  8325.658374   945.158271
    6359.0850  240770.370000  8416.429241   956.243834
    6362.8190  241675.550000  8500.713695   974.860519
    6366.6450  242735.230000  8595.503871   988.005772
    6370.4730  243612.450000  8678.820592  1003.681403
    6374.3070  244627.190000  8774.636800  1017.883405
    6378.2300  245504.420000  8868.981382  1029.618094
    6382.0750  246614.200000  8976.833222  1043.880660
    6386.0090  247977.480000  9097.193284  1060.672282
    6389.9480  248780.300000  9191.077511  1075.991086
    6393.8930  249752.620000  9296.462096  1089.841102
    6397.8420  250868.470000  9397.369201  1102.220496
    6401.8820  251752.830000  9485.788895  1115.128643
    6405.8430  252670.720000  9590.721676  1131.565576
    6409.8940  253625.120000  9690.172923  1144.533661
    6413.9500  254340.050000  9790.134071  1158.029844
    6418.0130  255207.480000  9894.607001  1177.054182
    6422.0810  255852.450000  9986.587185  1191.607113
    6426.1530  256758.940000  10100.093367  1206.690717
    6430.3180  257654.940000  10206.106809  1222.304789
    6434.4020  258522.450000  10328.639156  1239.446039
    6438.5790  259339.500000  10452.675916  1251.117328
    6442.7610  259967.060000  10559.236037  1269.318231
    6446.9490  260869.140000  10680.299778  1288.048011
    6451.2300  261585.730000  10793.888228  1304.307266
    6455.4300  262629.840000  10922.977394  1324.094181
    6459.7230  263496.500000  11050.592928  1343.411246
    6463.9340  264477.660000  11190.719139  1364.258130
    6468.2390  265013.340000  11302.355602  1382.635091
    6472.5500  266133.530000  11437.497080  1404.536247
    6476.9550  266820.250000  11564.166367  1422.972809
    6481.2780  267525.500000  11681.342243  1440.934540
    6485.6070  268422.250000  11820.038868  1463.427519
    6490.0310  269293.530000  11954.239368  1484.447983
    6494.4610  270165.310000  12090.959576  1501.000718
    6498.8980  271039.620000  12224.192860  1520.080067
    6503.3410  271572.470000  12339.938421  1537.689597
    6507.7900  272659.810000  12490.194556  1559.826974
    6512.3350  272870.690000  12601.968349  1579.494754
    6516.7970  273895.090000  12740.248429  1604.690896
    6521.3550  274880.000000  12898.056470  1627.417884
    6525.9200  275336.440000  13029.366457  1648.673076
    6530.4920  276331.370000  13179.199108  1672.458604
    6535.0690  277008.840000  13320.529533  1694.770645
    6539.6550  277815.840000  13464.390344  1716.613489
    6544.2470  278083.340000  13577.755830  1736.985002
    6548.9360  278697.370000  13709.643602  1749.887496
    6553.5410  279284.940000  13829.037539  1769.318689
    6558.2440  279850.000000  13975.946507  1792.276761
    6562.9540  280088.590000  14097.365641  1809.766707
    6567.6710  281116.690000  14252.307879  1834.784159
    6572.3950  281696.310000  14395.757941  1856.332145
    6577.2180  282394.470000  14540.719038  1881.407042
    6581.9560  282837.120000  14685.200005  1903.014455
    6586.7920  283772.310000  14843.190253  1930.148979
    6591.5460  284046.030000  14970.690194  1950.813183
    6596.3970  284290.250000  15102.702832  1975.006567
    6601.2570  285335.000000  15280.231415  2002.727354
    6606.1250  285810.250000  15424.283669  2029.980382
    6611.0910  286176.030000  15560.849479  2053.761749
    6615.9730  286813.340000  15719.918789  2078.070088
    6620.9550  287446.190000  15875.494240  2101.910467
    6625.8530  287834.500000  16021.597603  2128.278979
    6630.8500  288386.370000  16174.212348  2154.177852
    6635.8550  288540.750000  16312.330983  2174.603445
    6640.8690  289209.660000  16474.980425  2204.559889
    6645.8910  289913.090000  16645.138443  2234.045770
    6650.9190  289909.030000  16785.798208  2259.060873
    6655.9570  290195.470000  16938.984328  2286.603961
    6661.0960  290862.470000  17115.672150  2316.676334
    6666.1500  291352.970000  17280.876534  2346.276228
    6671.3050  291291.970000  17418.608652  2374.410266
    6676.4690  292088.500000  17602.832710  2409.070139
    6681.6420  291759.560000  17727.587436  2432.260419
    6686.8220  291682.160000  17861.860052  2454.980250
    6692.0110  291477.250000  17992.625116  2472.228469
    6697.3030  289260.840000  17996.923770  2482.005348
    6702.5090  277460.000000  17427.715410  2412.309961
    6707.7240  311977.660000  19743.031284  2735.145360
    6713.0420  300784.810000  19168.860091  2666.511575
    6718.3690  298566.530000  19176.216535  2671.405635
    6723.7050  298003.720000  19290.060623  2693.829991
    6729.0490  297221.470000  19404.433117  2719.781513
    6734.4030  296150.720000  19491.325373  2728.264012
    6739.7660  300766.500000  19957.723598  2796.275117
    6745.1370  297563.780000  19906.644860  2796.815892
    6750.6140  293090.590000  19739.066480  2785.885405
    6756.0030  292203.910000  19891.010191  2818.486054
    6761.4980  299627.780000  20556.454331  2921.610400
    6766.9060  301381.120000  20815.432177  2964.272510
    6772.4200  294341.030000  20496.908319  2929.456940
    6777.9430  302573.440000  21230.886353  3040.171794
    6783.4760  301565.370000  21340.396132  3065.414536
    6789.0180  300730.810000  21443.435166  3088.191195
    6794.5690  299731.780000  21545.953107  3114.491847
    6800.2280  296859.280000  21508.005654  3119.323720
    6805.7990  285428.280000  20876.576506  3035.687094
    6811.4770  313319.810000  23052.642987  3361.577729
    6817.0670  307503.840000  22816.240271  3338.997376
    6822.7650  305882.410000  22893.333326  3354.946242
