# XDI/1.0
# Column.1: energy eV
# Column.2: i0
# Column.3: itrans
# Column.4: irefer
# Beamline.name: SSRL 2-3
# Beamline.notes: vert slits = 0.6mm
# Detector.I0: N2 15cm
# Detector.I1: N2 30cm
# Detector.I2: N2 15cm
# Element.edge: K
# Element.symbol: Cr
# Mono.d_spacing: 3.13550
# Mono.name: Si(111)
# Mono.notes: unfocused, detuned 75%, clockwise at E=5990eV
# Sample.formula: Na2CrO4
# Sample.name: Na2CrO4
# Sample.prep: powder on tape (4 layers)
# Sample.reference: Cr foil
# Sample.temperature: room temp
# Scan.start_time: 1997-04-17 23:39:33
# ///
#    Note: mono d_spacing is nominal!
#     exafs to K16
#     396  E XMU XMUR I0
#-------------
#   energy   i0   itrans  irefer
    5759.9890  25203.900000  18364.499839  2330.699517
    5769.9800  25185.900000  18684.500205  2386.699178
    5780.0070  25178.900000  19016.500358  2442.700140
    5790.0030  25151.900000  19339.500075  2499.699789
    5799.9650  25117.900000  19653.499998  2557.700057
    5810.0340  25083.900000  19975.499669  2614.700361
    5820.0000  25054.900000  20302.499716  2675.699970
    5830.0020  25014.900000  20628.500671  2733.699028
    5839.9710  24972.900000  20956.499500  2795.700879
    5849.9750  24927.900000  21270.500466  2852.700696
    5860.0160  24890.900000  21606.499557  2914.700805
    5870.0220  24849.900000  21936.500269  2977.699220
    5879.9930  24812.900000  22268.499007  3041.698508
    5890.0000  24786.900000  22620.500068  3105.701382
    5899.9710  24747.900000  22960.499970  3172.701226
    5909.9780  24712.900000  23309.500040  3239.700880
    5920.0210  24654.900000  23635.500109  3307.699140
    5930.0260  24615.900000  23975.500000  3374.700149
    5939.9950  24551.900000  24301.499939  3438.698560
    5949.9990  24497.900000  24626.499992  3502.699996
    5959.9650  24452.900000  24949.499910  3565.701392
    5969.9670  24382.900000  25263.500016  3629.698790
    5970.4870  24371.900000  25277.499932  3631.699314
    5971.0060  24340.900000  25263.499918  3629.698776
    5971.5260  24202.900000  25129.499896  3613.700985
    5971.9720  24082.900000  25023.500043  3596.698657
    5972.4920  24020.900000  24986.499893  3593.701302
    5973.0120  24117.900000  25093.500124  3608.700926
    5973.5320  24277.900000  25278.499986  3637.698609
    5973.9780  24381.900000  25403.500100  3655.701354
    5974.4980  24422.900000  25471.499915  3665.699501
    5975.0190  24419.900000  25485.500017  3669.699078
    5975.4640  24410.900000  25493.499902  3669.698528
    5975.9850  24415.900000  25522.500086  3675.699370
    5976.5060  24417.900000  25536.499965  3677.700894
    5977.0260  24420.900000  25544.500096  3680.700300
    5977.4730  24411.900000  25561.499875  3682.700477
    5977.9940  24414.900000  25574.500009  3685.701086
    5978.5150  24422.900000  25601.500083  3692.700181
    5979.0370  24418.900000  25632.499873  3692.700646
    5979.4830  24399.900000  25624.499971  3692.700096
    5980.0050  24432.900000  25677.500069  3701.699819
    5980.5260  24450.900000  25715.500054  3708.698198
    5980.9730  24446.900000  25721.500012  3708.699287
    5981.4950  24435.900000  25727.500096  3709.701675
    5982.0160  24452.900000  25763.499916  3718.698563
    5982.4630  24460.900000  25784.499952  3718.701448
    5982.9860  24434.900000  25778.499924  3718.698748
    5983.5070  24453.900000  25813.500039  3722.701493
    5984.0300  24483.900000  25855.500114  3729.698311
    5984.4770  24474.900000  25862.499988  3730.700593
    5984.9990  24422.900000  25822.500048  3721.698711
    5985.5210  24275.900000  25682.500066  3701.698723
    5985.9700  23991.900000  25390.499875  3654.700266
    5986.4920  23241.900000  24609.499926  3541.698960
    5987.0150  21730.900000  23011.499996  3308.699099
    5987.4630  21148.900000  22413.499973  3220.699122
    5987.9860  22214.900000  23558.499891  3380.699649
    5988.5090  23117.900000  24518.500112  3505.699032
    5989.0320  23561.900000  24994.500001  3557.698335
    5989.4800  23809.900000  25246.499958  3565.700508
    5990.0030  23993.900000  25423.499955  3528.701448
    5990.5260  24060.900000  25461.499974  3432.701314
    5990.9750  24096.900000  25454.499920  3343.698540
    5991.4990  24136.900000  25408.499902  3261.700744
    5992.0210  24169.900000  25301.500122  3186.699327
    5992.4710  24153.900000  25095.500014  3118.700934
    5992.9950  24166.900000  24712.499996  3025.699149
    5993.5180  24190.900000  23891.500054  2883.698724
    5993.9670  24202.900000  22543.500104  2694.699730
    5994.4920  24190.900000  20592.499950  2437.699897
    5995.0160  24209.900000  20151.500264  2364.698998
    5995.4650  24212.900000  21445.500340  2504.699705
    5995.9890  24212.900000  23342.499898  2719.700405
    5996.5140  24205.900000  24458.500033  2848.700157
    5996.9630  24200.900000  24870.500010  2898.700006
    5997.4880  24218.900000  25111.500039  2922.700186
    5998.0120  24212.900000  25205.500109  2915.700877
    5998.5380  24198.900000  25178.500046  2882.700296
    5998.9870  24196.900000  25120.499998  2831.700022
    5999.5130  24210.900000  25014.499956  2761.700615
    6000.0370  24167.900000  24808.500000  2680.701024
    6000.4870  24113.900000  24569.500035  2607.700602
    6001.0130  24009.900000  24266.499925  2522.700098
    6001.4620  23904.900000  23992.500008  2455.701053
    6001.9880  23811.900000  23743.499998  2389.699937
    6002.5130  23879.900000  23654.500005  2344.699789
    6002.9640  24028.900000  23658.500099  2318.699487
    6003.4900  24154.900000  23580.499971  2285.699485
    6004.0160  24183.900000  23370.499982  2238.700453
    6004.4660  24177.900000  23151.499989  2198.700651
    6004.9930  24183.900000  22873.499937  2151.699581
    6005.5180  24183.900000  22547.499942  2100.699097
    6005.9700  24173.900000  22242.499902  2055.700917
    6006.4960  24166.900000  21873.499997  2003.700775
    6007.0220  24172.900000  21474.499705  1947.699964
    6007.4730  24172.900000  21117.499796  1899.700175
    6008.0000  24154.900000  20666.500542  1839.699160
    6008.5260  24161.900000  20246.499458  1786.699231
    6008.9780  24166.900000  19935.499328  1744.700710
    6009.5040  24153.900000  19600.499640  1698.699669
    6010.0320  24146.900000  19315.500484  1656.700390
    6010.9360  24150.664000  18896.255383  1602.464529
    6011.8390  24177.951000  18608.521150  1586.757462
    6012.8180  24190.768000  18471.296244  1612.580955
    6013.7980  24174.107000  18410.583725  1649.931384
    6014.7780  24183.975000  18397.381114  1682.812202
    6015.7580  24224.367000  18429.687720  1702.222631
    6016.8150  24222.285000  18433.505821  1703.159367
    6017.7960  24228.730000  18404.833477  1686.626397
    6018.9290  24245.701000  18363.674904  1662.624742
    6019.9860  24269.197000  18346.021391  1644.148684
    6021.1200  24281.219000  18336.880705  1632.202567
    6022.1770  24290.768000  18336.251570  1633.786065
    6023.3880  24327.842000  18351.133721  1647.897702
    6024.5220  24364.441000  18359.523529  1657.539764
    6025.7330  24394.566000  18349.424334  1660.708307
    6026.8690  24412.219000  18360.835407  1654.407412
    6028.1570  24431.396000  18417.758343  1640.634942
    6029.3690  24476.100000  18520.190794  1638.392423
    6030.5820  24516.330000  18632.135894  1637.678723
    6031.8720  24548.086000  18736.587964  1642.492964
    6033.1610  24584.367000  18830.551924  1644.837595
    6034.5280  24618.174000  18902.024839  1650.709261
    6035.8190  24668.508000  18969.009155  1657.110711
    6037.1870  24702.367000  19014.506142  1658.041637
    6038.5550  24743.752000  19059.512346  1654.500768
    6040.0000  24782.664000  19122.026232  1654.490120
    6041.3700  24843.102000  19250.055204  1661.008468
    6042.8160  24889.064000  19436.590740  1682.053570
    6044.2640  24941.553000  19638.639090  1704.629880
    6045.7120  24995.568000  19839.195054  1732.734037
    6047.2370  25045.109000  20061.263347  1757.367163
    6048.7630  25111.176000  20256.843883  1781.530286
    6050.2890  25181.768000  20372.931665  1806.221584
    6051.8160  25239.887000  20509.530092  1834.442573
    6053.4220  25297.531000  20691.643064  1875.191715
    6054.9510  25361.701000  20883.262513  1913.469337
    6056.5570  25455.398000  21100.394198  1952.277662
    6058.2410  25518.621000  21276.034980  1987.612801
    6059.8490  25564.369000  21422.186687  2011.478746
    6061.5350  25600.643000  21554.848257  2031.872473
    6063.2220  25648.443000  21688.020730  2047.795949
    6064.9100  25721.770000  21835.705896  2055.247986
    6066.6760  25799.621000  21972.898375  2053.229259
    6068.3650  25878.000000  22108.602516  2044.738251
    6070.1330  25957.904000  22237.815685  2029.777638
    6071.9020  26049.332000  22371.540214  2018.344508
    6073.7490  26153.289000  22502.775496  2020.442723
    6075.5210  26234.770000  22618.522046  2043.069084
    6077.3690  26324.777000  22740.777690  2079.221796
    6079.2200  26426.313000  22872.545808  2121.905102
    6081.1490  26518.371000  22996.819830  2165.118162
    6083.0020  26626.957000  23140.608634  2211.860516
    6084.9340  26738.068000  23284.905494  2255.131571
    6086.8660  26860.705000  23449.714922  2281.931738
    6088.8000  26948.867000  23606.033961  2287.259453
    6090.8130  27030.557000  23760.861846  2267.116516
    6092.8270  27135.771000  23942.203071  2234.502751
    6094.8430  27247.512000  24126.053488  2199.419175
    6096.8590  27372.779000  24313.414922  2170.864016
    6098.8780  27485.572000  24484.283268  2148.836241
    6100.9750  27602.891000  24645.664770  2142.338552
    6103.0750  27729.736000  24813.556558  2165.371931
    6105.1750  27836.105000  24945.958349  2207.930870
    6107.2770  27961.002000  25090.872978  2271.020190
    6109.4590  28071.426000  25219.295366  2339.638407
    6111.6430  28206.373000  25391.230165  2409.785755
    6113.8270  28342.848000  25568.671262  2466.459751
    6116.0130  28481.848000  25746.628129  2509.665989
    6118.2800  28606.375000  25927.091998  2532.399938
    6120.4700  28734.426000  26107.066012  2547.664370
    6122.7400  28862.004000  26290.552907  2558.455279
    6125.0110  28994.107000  26484.548897  2572.776079
    6127.3630  29126.738000  26707.056902  2603.627940
    6129.6390  29272.895000  26924.071898  2641.005597
    6131.9950  29400.576000  27144.600120  2681.915119
    6134.3520  29562.783000  27421.636886  2724.348642
    6136.7900  29712.518000  27688.186124  2757.316236
    6139.1510  29862.775000  27952.243969  2782.810759
    6141.5940  30017.561000  28229.814101  2806.835401
    6144.0380  30144.873000  28491.894946  2827.388966
    6146.4840  30282.711000  28760.484114  2841.469550
    6148.9320  30430.074000  29036.584103  2853.081265
    6151.4620  30587.963000  29334.194859  2866.219447
    6153.9940  30766.377000  29653.316016  2890.888684
    6156.5280  30912.318000  29939.948990  2915.084115
    6159.0640  31060.785000  30235.090020  2928.812852
    6161.6030  31244.777000  30554.742052  2929.066865
    6164.2220  31408.297000  30870.905899  2928.850964
    6166.8440  31562.342000  31180.579874  2947.167269
    6169.4700  31718.912000  31488.764008  2988.007520
    6172.0960  31880.010000  31806.459007  3056.377474
    6174.8060  32063.631000  32152.661985  3132.280226
    6177.5170  32239.781000  32494.379009  3209.708493
    6180.2310  32403.455000  32819.605088  3278.667379
    6182.9480  32574.654000  33140.339995  3342.153205
    6185.6670  32740.381000  33489.586140  3393.169801
    6188.4690  32906.633000  33826.344041  3437.714663
    6191.2730  33062.410000  34138.612924  3480.789332
    6194.0810  33219.715000  34463.391165  3523.393667
    6196.8910  33423.547000  34820.679945  3575.523009
    6199.7030  33610.902000  35169.477101  3623.185382
    6202.5990  33792.781000  35498.784973  3668.373845
    6205.4980  33977.191000  35843.604913  3717.093949
    6208.3990  34170.125000  36202.933965  3774.342383
    6211.3040  34348.582000  36535.777168  3836.118227
    6214.2100  34506.570000  36848.124827  3888.423209
    6217.2020  34701.082000  37199.987975  3937.257591
    6220.1960  34909.117000  37584.358901  3972.624571
    6223.1930  35104.680000  37918.241976  3988.516331
    6226.1930  35309.770000  38297.636963  4009.935660
    6229.1960  35521.387000  38671.539103  4025.889603
    6232.2840  35694.527000  39025.952819  4035.369542
    6235.3750  35676.195000  39163.875152  4025.377799
    6238.4690  36195.387000  39900.309062  4073.913436
    6241.5650  35386.105000  39175.252316  3988.978683
    6244.7480  36336.352000  40396.711077  4109.573997
    6247.8520  36645.121000  40907.674880  4176.700978
    6251.0410  36886.418000  41358.150307  4263.355420
    6254.2330  37103.242000  41789.142260  4362.536051
    6257.4290  37317.590000  42228.637189  4470.246700
    6260.7100  37536.465000  42668.645817  4569.488900
    6263.9130  37756.863000  43131.158049  4644.253554
    6267.2020  37978.789000  43601.188958  4702.557077
    6270.4940  38179.242000  44044.728076  4754.381742
    6273.7900  38378.219000  44500.778577  4816.736794
    6277.1720  38601.727000  44989.337462  4887.625078
    6280.4750  38823.754000  45475.407066  4951.035149
    6283.8650  39016.313000  45919.985706  5008.980697
    6287.2580  39267.391000  46460.079054  5072.452502
    6290.6550  39482.000000  46972.680739  5133.451150
    6294.0560  39703.133000  47473.791528  5202.981369
    6297.5440  39915.793000  47982.413585  5281.042704
    6300.9540  40123.980000  48474.547218  5357.630790
    6304.4500  40307.691000  48959.190023  5427.746803
    6307.9500  40513.930000  49464.342952  5497.393471
    6311.5380  40739.691000  49998.006073  5563.565202
    6315.0470  40968.980000  50558.182155  5623.272529
    6318.5600  41157.797000  51056.868836  5672.500845
    6322.1610  41393.137000  51603.061088  5721.265340
    6325.7660  41649.004000  52201.767515  5779.553062
    6329.3750  41881.398000  52756.984255  5836.376644
    6333.0730  42083.316000  53273.710208  5899.726345
    6336.6910  42329.762000  53863.950487  5969.603036
    6340.3970  42566.730000  54434.696956  6043.007160
    6344.1090  42798.230000  55009.953775  6127.943097
    6347.8260  43018.254000  55560.723360  6217.404503
    6351.5460  43247.801000  56121.000792  6309.403175
    6355.2710  43494.875000  56748.788894  6402.921145
    6359.0850  43732.477000  57339.090962  6500.971367
    6362.8190  43965.602000  57911.897986  6607.556084
    6366.6450  44213.254000  58527.217847  6716.666053
    6370.4730  44441.434000  59121.049734  6821.299747
    6374.3070  44679.137000  59715.388971  6907.465332
    6378.2300  44912.367000  60343.243808  6992.163284
    6382.0750  45146.121000  60950.603812  7072.392063
    6386.0090  45407.406000  61610.482067  7164.147116
    6389.9480  45644.211000  62247.861808  7252.427108
    6393.8930  45828.547000  62818.756163  7340.241132
    6397.8420  46141.406000  63547.161102  7442.578227
    6401.8820  46373.793000  64216.076597  7531.450055
    6405.8430  46605.703000  64879.500803  7617.846480
    6409.8940  46847.141000  65557.438516  7710.774853
    6413.9500  47091.105000  66237.881653  7810.230913
    6418.0130  47310.594000  66916.832680  7913.218152
    6422.0810  47555.609000  67642.307784  8025.730092
    6426.1530  47774.148000  68304.281847  8120.773891
    6430.3180  48038.219000  69058.765998  8221.353240
    6434.4020  48283.809000  69771.763049  8312.449968
    6438.5790  48499.930000  70470.272529  8399.078140
    6442.7610  48724.574000  71198.297201  8490.245382
    6446.9490  49017.746000  72039.818135  8616.931060
    6451.2300  49251.441000  72801.861583  8745.152318
    6455.4300  49438.664000  73481.413018  8862.895261
    6459.7230  49716.414000  74313.470951  9001.167041
    6463.9340  49954.688000  75088.044714  9124.976778
    6468.2390  50204.488000  75884.126469  9248.307160
    6472.5500  50463.816000  76716.719065  9375.169621
    6476.9550  50716.668000  77530.818390  9499.560306
    6481.2780  50951.047000  78326.431181  9628.477456
    6485.6070  51184.949000  79136.556537  9757.926450
    6490.0310  51436.379000  79959.190419  9888.904636
    6494.4610  51659.336000  80770.333166  10000.416422
    6498.8980  51928.820000  81664.985398  10129.453161
    6503.3410  52102.828000  82412.145881  10239.019136
    6507.7900  52373.359000  83289.829427  10378.106531
    6512.3350  52561.422000  84049.013994  10507.729494
    6516.7970  52786.008000  84888.714337  10647.883666
    6521.3550  53012.117000  85694.916809  10779.568211
    6525.9200  53268.754000  86604.634507  10931.771112
    6530.4920  53521.918000  87510.855826  11083.514811
    6535.0690  53720.609000  88321.600869  11206.777264
    6539.6550  53936.824000  89157.844781  11338.583013
    6544.2470  54157.566000  90017.607193  11471.908257
    6548.9360  54362.832000  90839.878985  11591.758658
    6553.5410  54549.625000  91659.657077  11717.147156
    6558.2440  54788.945000  92584.944314  11858.056856
    6562.9540  55026.789000  93511.744626  12008.491678
    6567.6710  55246.160000  94389.056141  12150.473445
    6572.3950  55521.059000  95385.873429  12316.963890
    6577.2180  55781.480000  96398.208234  12481.001582
    6581.9560  55988.430000  97291.055919  12636.558262
    6586.7920  56207.902000  98189.408389  12794.640240
    6591.5460  56446.906000  99131.264856  12959.250786
    6596.3970  56663.430000  100083.639270  13119.402340
    6601.2570  56909.484000  101091.526113  13281.077869
    6606.1250  57146.063000  102053.919788  13442.271066
    6611.0910  57354.168000  103013.826541  13603.011710
    6615.9730  57544.797000  103930.241860  13762.271829
    6620.9550  57821.953000  105017.165028  13941.051226
    6625.8530  57931.637000  105808.604379  14076.374757
    6630.8500  58228.844000  106978.548531  14269.228040
    6635.8550  58410.578000  107908.009855  14435.596040
    6640.8690  58637.836000  108914.977374  14614.505367
    6645.8910  58842.625000  109906.456357  14793.939553
    6650.9190  58991.934000  110814.432461  14953.898315
    6655.9570  59215.773000  111849.938961  15135.396538
    6661.0960  59528.137000  113045.940765  15341.403607
    6666.1500  59624.027000  113858.463685  15486.956142
    6671.3050  59735.441000  114687.495137  15641.036352
    6676.4690  59942.383000  115731.044545  15814.653035
    6681.6420  60167.848000  116808.089015  16005.786663
    6686.8220  60361.844000  117839.647814  16190.453582
    6692.0110  60396.363000  118564.721906  16331.650735
    6697.3030  60266.406000  118975.303036  16432.366123
    6702.5090  57481.977000  114168.400433  15802.616936
    6707.7240  62664.074000  125090.002844  17346.408828
    6713.0420  62219.699000  124938.117383  17369.721622
    6718.3690  62161.848000  125526.743984  17496.552042
    6723.7050  62269.523000  126412.871582  17661.927049
    6729.0490  62314.723000  127255.518530  17821.810605
    6734.4030  62320.449000  127984.671941  17972.242895
    6739.7660  63038.703000  130181.349056  18331.198991
    6745.1370  62900.480000  130656.519973  18444.678392
    6750.6140  61982.785000  129453.207682  18326.708656
    6756.0030  62412.617000  131179.399798  18622.245309
    6761.4980  62678.973000  132459.115102  18852.320929
    6766.9060  63888.855000  135738.322502  19373.902588
    6772.4200  62520.262000  133686.044066  19127.041062
    6777.9430  64405.195000  138436.300765  19866.706642
    6783.4760  64474.656000  139399.040656  20056.887608
    6789.0180  64490.641000  140225.299676  20228.599350
    6794.5690  64496.152000  141011.079190  20402.847269
    6800.2280  64200.191000  141158.360713  20481.629978
    6805.7990  61922.754000  137133.143608  19945.933840
    6811.4770  66672.844000  148315.451358  21628.749684
    6817.0670  66254.461000  148189.268572  21665.113595
    6822.7650  66237.602000  149027.582719  21851.999065
