# XDI/1.0
# Column.1: energy eV
# Column.2: i0
# Column.3: itrans
# Column.4: irefer
# Beamline.name: SSRL 2-3
# Beamline.notes: vert slits = 0.6mm
# Detector.I0: N2 15cm
# Detector.I1: N2 30cm
# Detector.I2: N2 15cm
# Element.edge: K
# Element.symbol: Cr
# Mono.d_spacing: 3.13550
# Mono.name: Si(111)
# Mono.notes: unfocused, detuned 75%, clockwise at E=5990eV
# Sample.formula: Na2CrO4
# Sample.name: Na2CrO4
# Sample.prep: powder on tape (5 layers)
# Sample.reference: Cr foil
# Sample.temperature: 100K
# Scan.start_time: 1997-04-18 19:10:23
# ///
#    Note: mono d_spacing is nominal!
#     exafs to K16
#     396  E XMU XMUR I0
#-------------
#   energy   i0   itrans  irefer
    5759.9890  218715.800000  15107.694297  1930.299496
    5769.9800  218605.800000  15381.694105  1978.298453
    5780.0070  218481.800000  15652.704536  2024.301526
    5790.0030  218181.800000  15909.694815  2072.299085
    5799.9650  218137.800000  16195.703211  2122.301203
    5810.0340  217943.800000  16474.705940  2172.301558
    5820.0000  217662.800000  16736.702733  2219.300545
    5830.0020  217388.800000  17012.705639  2272.299821
    5839.9710  217232.800000  17299.707426  2323.300002
    5849.9750  216962.800000  17581.705659  2376.300604
    5860.0160  217150.800000  17895.692529  2431.299877
    5870.0220  216760.800000  18176.697951  2483.300299
    5879.9930  216446.800000  18452.701633  2539.300856
    5890.0000  216195.800000  18754.701705  2592.299912
    5899.9710  215709.800000  19024.697164  2647.299294
    5909.9780  215638.800000  19333.701905  2705.299929
    5920.0210  215312.800000  19632.706108  2762.300521
    5930.0260  214811.800000  19899.692830  2816.298111
    5939.9950  214472.800000  20192.695373  2875.299733
    5949.9990  214123.800000  20478.700631  2931.301002
    5959.9650  213896.800000  20777.707470  2990.299817
    5969.9670  213382.800000  21043.710688  3040.301645
    5970.4870  213152.800000  21040.692049  3042.298391
    5971.0060  212959.800000  21039.706023  3041.301095
    5971.5260  211933.800000  20953.694133  3029.298158
    5971.9720  210437.800000  20812.694697  3010.298136
    5972.4920  209634.800000  20754.705026  3002.300924
    5973.0120  210843.800000  20891.692146  3025.297927
    5973.5320  212377.800000  21056.699260  3049.299110
    5973.9780  213126.800000  21143.706448  3064.300415
    5974.4980  213626.800000  21212.710786  3072.300309
    5975.0190  213609.800000  21230.694455  3073.300256
    5975.4640  213595.800000  21234.695921  3078.299838
    5975.9850  213771.800000  21268.691121  3083.298887
    5976.5060  213647.800000  21272.706474  3084.300424
    5977.0260  213517.800000  21272.692364  3084.298379
    5977.4730  213718.800000  21315.705155  3090.299872
    5977.9940  213661.800000  21318.695081  3090.300672
    5978.5150  213646.800000  21322.698961  3091.298361
    5979.0370  213882.800000  21373.700154  3098.298846
    5979.4830  213699.800000  21367.695522  3100.297971
    5980.0050  213753.800000  21382.693619  3101.298471
    5980.5260  213722.800000  21394.691880  3104.298762
    5980.9730  213574.800000  21390.697315  3103.300190
    5981.4950  213631.800000  21416.699591  3107.299349
    5982.0160  213887.800000  21461.692000  3113.297888
    5982.4630  213829.800000  21467.697672  3113.300357
    5982.9860  213871.800000  21489.700419  3118.299341
    5983.5070  214175.800000  21533.700501  3123.300118
    5984.0300  214204.800000  21553.701534  3125.300901
    5984.4770  213984.800000  21539.705178  3125.299081
    5984.9990  214002.800000  21554.704501  3125.299439
    5985.5210  212531.800000  21419.690680  3102.299542
    5985.9700  209347.800000  21107.701707  3056.299846
    5986.4920  201042.800000  20278.694862  2934.299697
    5987.0150  187702.800000  18936.700431  2736.300597
    5987.4630  185544.800000  18728.704788  2706.299930
    5987.9860  195914.800000  19787.706694  2853.301859
    5988.5090  203215.800000  20526.699812  2950.298845
    5989.0320  207309.800000  20952.695316  2996.300296
    5989.4800  209419.800000  21160.703430  2998.301165
    5990.0030  210268.800000  21236.697773  2949.299582
    5990.5260  210958.800000  21283.707071  2867.300096
    5990.9750  211347.800000  21288.693660  2798.300078
    5991.4990  211493.800000  21232.705042  2725.300463
    5992.0210  211690.800000  21143.694306  2667.299986
    5992.4710  211943.800000  21022.707124  2614.302013
    5992.9950  211704.800000  20701.700600  2536.298796
    5993.5180  211929.800000  20045.708436  2424.300642
    5993.9670  211893.800000  18990.696584  2276.299745
    5994.4920  211994.800000  17667.693504  2096.299707
    5995.0160  211858.800000  17580.705373  2068.300003
    5995.4650  212148.800000  18660.703865  2188.299844
    5995.9890  212052.800000  19952.696563  2333.299360
    5996.5140  212117.800000  20682.703696  2417.301368
    5996.9630  212295.800000  20952.701442  2450.300292
    5997.4880  212114.800000  21083.708591  2463.301781
    5998.0120  212188.800000  21143.709633  2453.300950
    5998.5380  212216.800000  21138.698095  2421.299534
    5998.9870  212137.800000  21065.698697  2377.299224
    5999.5130  212245.800000  20982.694719  2321.299219
    6000.0370  212077.800000  20838.707368  2255.300421
    6000.4870  211593.800000  20673.700784  2199.300596
    6001.0130  210561.800000  20414.699329  2127.299206
    6001.4620  209188.800000  20175.705720  2068.300372
    6001.9880  208567.800000  19992.699226  2013.300003
    6002.5130  209781.800000  19979.703693  1983.299641
    6002.9640  211597.800000  20025.697082  1968.300151
    6003.4900  212072.800000  19915.704910  1932.301176
    6004.0160  212291.800000  19741.691975  1896.298339
    6004.4660  212306.800000  19564.709319  1860.301178
    6004.9930  212111.800000  19319.703737  1821.299931
    6005.5180  212196.800000  19075.697562  1780.300457
    6005.9700  212533.800000  18870.692073  1747.298768
    6006.4960  212399.800000  18576.704467  1707.300294
    6007.0220  212381.800000  18266.697593  1661.300282
    6007.4730  212181.800000  17989.701484  1621.300256
    6008.0000  211965.800000  17649.702733  1575.300332
    6008.5260  212068.800000  17353.700177  1533.299195
    6008.9780  212008.800000  17106.692877  1498.299477
    6009.5040  211787.800000  16840.704283  1462.300426
    6010.0320  212322.800000  16673.702174  1433.300402
    6010.9360  212504.560000  16390.459815  1395.064216
    6011.8390  212454.840000  16191.727248  1389.357553
    6012.8180  212130.640000  16084.519880  1411.181520
    6013.7980  212476.950000  16102.805507  1452.533847
    6014.7780  212300.800000  16093.623489  1478.415841
    6015.7580  212471.160000  16127.941449  1494.825177
    6016.8150  212861.030000  16170.789728  1498.765114
    6017.7960  212668.420000  16153.136465  1486.233756
    6018.9290  212788.340000  16142.006325  1463.233866
    6019.9860  213108.780000  16142.373993  1449.759585
    6021.1200  213246.730000  16125.273957  1440.817776
    6022.1770  213608.200000  16123.671890  1443.401522
    6023.3880  213612.200000  16101.593167  1451.517007
    6024.5220  213934.720000  16106.032991  1461.161872
    6025.7330  214049.750000  16107.974576  1460.334421
    6026.8690  214182.300000  16137.447801  1456.038689
    6028.1570  214779.370000  16236.411039  1450.269375
    6029.3690  214606.970000  16300.899799  1443.030345
    6030.5820  215211.080000  16418.903344  1447.321076
    6031.8720  215463.700000  16521.415524  1448.140689
    6033.1610  215833.860000  16625.454842  1453.490558
    6034.5280  216313.530000  16723.984439  1462.366309
    6035.8190  216945.720000  16826.048373  1469.774789
    6037.1870  217385.420000  16897.622087  1473.711291
    6038.5550  217594.660000  16957.699428  1472.176583
    6040.0000  217755.410000  17012.297424  1470.170618
    6041.3700  218238.670000  17110.413939  1476.696178
    6042.8160  218691.450000  17236.027793  1490.747739
    6044.2640  218940.770000  17356.173017  1509.330593
    6045.7120  219566.590000  17498.821885  1527.442179
    6047.2370  220043.940000  17656.981431  1548.082787
    6048.7630  220429.800000  17780.658704  1565.251129
    6050.2890  221129.190000  17880.846300  1585.950799
    6051.8160  221864.090000  18019.562750  1616.181046
    6053.4220  222410.520000  18181.777630  1650.938416
    6054.9510  222992.450000  18339.513035  1683.225536
    6056.5570  223510.920000  18485.751976  1714.040197
    6058.2410  224098.910000  18631.515282  1744.385800
    6059.8490  224539.410000  18752.784301  1764.259821
    6061.5350  224726.420000  18846.585394  1781.663986
    6063.2220  225404.970000  18973.886727  1794.597299
    6064.9100  226089.030000  19096.706006  1800.059752
    6066.6760  226607.610000  19203.027165  1795.050098
    6068.3650  227689.700000  19346.871699  1790.571311
    6070.1330  228253.330000  19445.216638  1776.620757
    6071.9020  228931.470000  19551.083387  1765.197710
    6073.7490  229620.120000  19638.467911  1766.305878
    6075.5210  230492.300000  19745.378347  1786.944997
    6077.3690  231474.000000  19873.785588  1821.112460
    6079.2200  232010.220000  19964.694177  1856.807142
    6081.1490  232867.950000  20076.130151  1896.030622
    6083.0020  234025.200000  20219.081796  1934.786147
    6084.9340  234987.980000  20356.542600  1974.067952
    6086.8660  235757.280000  20489.525436  1996.879678
    6088.8000  236488.090000  20623.018343  1997.223263
    6090.8130  237536.420000  20795.028820  1983.093420
    6092.8270  238725.280000  20970.536625  1955.493194
    6094.8430  239842.660000  21147.572532  1929.423252
    6096.8590  240633.550000  21289.121975  1899.880970
    6098.8780  241610.950000  21432.185508  1880.870662
    6100.9750  242659.890000  21598.758438  1880.387426
    6103.0750  243710.340000  21747.838841  1901.432195
    6105.1750  244744.310000  21888.448522  1941.009179
    6107.2770  245777.810000  22016.560417  1996.113253
    6109.4590  246889.810000  22154.178487  2057.745825
    6111.6430  248077.340000  22296.317992  2115.909095
    6113.8270  249450.390000  22471.976808  2168.600563
    6116.0130  250730.970000  22639.145997  2207.822049
    6118.2800  251709.050000  22794.832305  2228.573862
    6120.4700  252529.660000  22921.027190  2237.852515
    6122.7400  253798.780000  23108.736473  2248.662845
    6125.0110  255117.440000  23290.952680  2262.999143
    6127.3630  256671.590000  23511.682089  2292.867936
    6129.6390  257538.280000  23676.935041  2325.263508
    6131.9950  258625.480000  23868.700354  2360.189688
    6134.3520  259968.220000  24092.977133  2396.643922
    6136.7900  261331.450000  24319.768181  2425.628158
    6139.1510  262894.220000  24574.068132  2448.142922
    6141.5940  264249.500000  24816.896523  2469.186471
    6144.0380  265338.310000  25031.215182  2484.756466
    6146.4840  266627.620000  25269.067096  2502.857310
    6148.9320  267920.470000  25504.430515  2510.488066
    6151.4620  269389.840000  25757.286291  2520.646837
    6153.9940  270974.720000  26024.685565  2539.335753
    6156.5280  272455.120000  26284.591771  2560.554671
    6159.0640  273867.030000  26546.998664  2573.301479
    6161.6030  275231.470000  26800.926363  2575.579231
    6164.2220  276656.440000  27073.366200  2573.383185
    6166.8440  278046.910000  27340.328333  2586.720457
    6169.4700  279596.910000  27621.790133  2626.583517
    6172.0960  280883.440000  27891.773229  2683.974663
    6174.8060  282710.470000  28214.253676  2755.895127
    6177.5170  283965.030000  28483.275680  2819.349252
    6180.2310  285595.090000  28782.801495  2881.330131
    6182.9480  287246.690000  29085.838132  2937.839342
    6185.6670  288810.810000  29385.367227  2983.878120
    6188.4690  290270.440000  29684.441109  3024.446320
    6191.2730  292093.590000  30015.000237  3066.544215
    6194.0810  293524.280000  30301.110487  3105.169681
    6196.8910  295691.470000  30660.696180  3156.325642
    6199.7030  297414.190000  30964.820776  3201.011157
    6202.5990  299190.410000  31288.455431  3245.226649
    6205.4980  300705.160000  31580.607636  3282.972460
    6208.3990  302398.440000  31884.260461  3329.244780
    6211.3040  304051.220000  32187.435484  3387.046064
    6214.2100  305573.530000  32477.106867  3435.376192
    6217.2020  307195.370000  32786.306044  3477.236710
    6220.1960  308936.720000  33100.006087  3503.622616
    6223.1930  310531.590000  33377.253510  3520.544395
    6226.1930  312293.970000  33718.982434  3537.990660
    6229.1960  314240.870000  34051.251740  3550.969958
    6232.2840  315825.310000  34363.991048  3556.476275
    6235.3750  315560.250000  34484.282153  3548.512957
    6238.4690  320382.720000  35148.090103  3599.076487
    6241.5650  313015.720000  34485.378166  3518.171565
    6244.7480  321865.220000  35622.194567  3628.792276
    6247.8520  324347.250000  36048.552167  3685.947814
    6251.0410  326377.780000  36441.401961  3759.629987
    6254.2330  328393.840000  36839.757166  3855.838989
    6257.4290  329717.440000  37143.620930  3941.577584
    6260.7100  332272.530000  37613.028975  4030.850943
    6263.9130  334331.160000  38027.934146  4099.647518
    6267.2020  335850.310000  38379.350008  4146.976667
    6270.4940  337508.970000  38756.252117  4190.831185
    6273.7900  339760.160000  39199.694638  4252.214716
    6277.1720  341656.840000  39612.663065  4313.129926
    6280.4750  343666.090000  40058.124720  4373.573972
    6283.8650  345594.810000  40486.112718  4425.552013
    6287.2580  347492.090000  40915.620201  4476.054212
    6290.6550  349631.840000  41370.609578  4535.084495
    6294.0560  351539.160000  41803.167463  4591.648515
    6297.5440  353544.970000  42277.189734  4663.735287
    6300.9540  355606.310000  42736.751809  4734.358553
    6304.4500  357600.190000  43205.792617  4803.503630
    6307.9500  359556.560000  43671.403005  4864.186537
    6311.5380  361803.440000  44183.485186  4928.393540
    6315.0470  363636.870000  44623.104357  4975.131288
    6318.5600  365962.810000  45136.205909  5027.393788
    6322.1610  368185.250000  45644.823639  5069.185776
    6325.7660  370056.220000  46126.007274  5118.512861
    6329.3750  372269.720000  46631.657003  5169.369075
    6333.0730  373904.750000  47079.802426  5222.744792
    6336.6910  376107.280000  47588.513631  5284.660727
    6340.3970  378408.310000  48116.723463  5357.105432
    6344.1090  380516.910000  48633.452533  5433.076879
    6347.8260  382665.000000  49148.677205  5513.573344
    6351.5460  384878.590000  49678.385241  5597.599997
    6355.2710  386957.720000  50196.657279  5679.160579
    6359.0850  389034.370000  50705.414231  5766.242726
    6362.8190  390852.560000  51182.690795  5853.854917
    6366.6450  392983.250000  51712.523700  5946.007525
    6370.4730  395289.440000  52269.825593  6035.684417
    6374.3070  397601.190000  52834.662800  6121.887523
    6378.2300  399943.440000  53406.002024  6200.619070
    6382.0750  401822.190000  53910.845740  6266.880340
    6386.0090  403811.500000  54466.192327  6344.670600
    6389.9480  406038.280000  55027.080725  6425.994732
    6393.8930  408335.620000  55620.477527  6513.841890
    6397.8420  410584.470000  56207.358426  6597.222197
    6401.8820  412704.840000  56794.793872  6676.131242
    6405.8430  415146.720000  57428.747181  6760.568607
    6409.8940  416824.120000  57959.144563  6836.530446
    6413.9500  419499.030000  58654.143096  6935.028849
    6418.0130  421549.500000  59252.632433  7027.058578
    6422.0810  423817.440000  59883.607096  7125.606152
    6426.1530  425849.940000  60497.075843  7211.687910
    6430.3180  428555.940000  61206.125718  7304.307758
    6434.4020  430930.470000  61892.608027  7387.443647
    6438.5790  433338.500000  62574.645856  7474.110965
    6442.7610  435287.060000  63200.216166  7561.319572
    6446.9490  437462.120000  63853.290704  7664.046586
    6451.2300  439696.750000  64549.881710  7779.307195
    6455.4300  441907.840000  65238.993733  7889.094427
    6459.7230  444646.500000  66012.596802  8014.413311
    6463.9340  446774.660000  66677.685797  8127.256000
    6468.2390  448992.340000  67413.333682  8240.630248
    6472.5500  451377.530000  68133.504690  8349.536970
    6476.9550  453646.250000  68878.129877  8466.969981
    6481.2780  455778.500000  69577.340436  8579.931638
    6485.6070  457994.250000  70300.058394  8691.431275
    6490.0310  460732.530000  71127.260882  8820.448150
    6494.4610  463150.310000  71918.939538  8933.994837
    6498.8980  464889.620000  72596.158054  9031.080356
    6503.3410  467799.470000  73471.951503  9157.687781
    6507.7900  469913.810000  74195.187895  9272.826996
    6512.3350  471647.690000  74889.993793  9390.497628
    6516.7970  474083.090000  75702.228735  9529.684410
    6521.3550  476243.000000  76452.086792  9653.419724
    6525.9200  478259.440000  77210.336979  9780.673500
    6530.4920  480957.370000  78082.162550  9917.457999
    6535.0690  483130.840000  78869.572512  10041.771142
    6539.6550  485551.840000  79715.421270  10170.618848
    6544.2470  486872.340000  80375.785319  10272.988278
    6548.9360  488882.370000  81146.641630  10390.884261
    6553.5410  490985.940000  81954.030954  10511.317060
    6558.2440  493635.000000  82845.910113  10644.277009
    6562.9540  495588.590000  83643.366773  10776.761758
    6567.6710  498001.690000  84493.319376  10917.788927
    6572.3950  500291.310000  85337.718978  11054.322730
    6577.2180  502364.470000  86180.754934  11192.410247
    6581.9560  504685.120000  87049.220369  11341.013975
    6586.7920  506773.310000  87891.208558  11485.148699
    6591.5460  509135.030000  88776.703379  11636.820665
    6596.3970  511136.250000  89628.664823  11781.001466
    6601.2570  513779.000000  90596.194776  11929.725324
    6606.1250  515932.250000  91485.314160  12080.981732
    6611.0910  518109.030000  92399.882106  12236.762038
    6615.9730  520319.340000  93298.939242  12387.076836
    6620.9550  522919.190000  94289.509714  12541.911298
    6625.8530  524139.500000  95032.588561  12675.282919
    6630.8500  526636.370000  96020.173535  12839.165583
    6635.8550  528252.750000  96851.304820  12986.597477
    6640.8690  530318.690000  97766.025359  13143.562930
    6645.8910  532651.060000  98774.111208  13314.045600
    6650.9190  534445.000000  99669.810257  13475.063447
    6655.9570  536257.500000  100566.022907  13633.615298
    6661.0960  538781.440000  101625.653365  13806.672600
    6666.1500  540651.940000  102519.877608  13964.280936
    6671.3050  542472.000000  103432.628789  14122.418103
    6676.4690  544721.500000  104454.822242  14298.071312
    6681.6420  546764.560000  105418.620890  14462.271448
    6686.8220  548628.120000  106371.835183  14624.977212
    6692.0110  549323.250000  107097.653314  14763.236439
    6697.3030  549268.870000  107698.867266  14884.003812
    6702.5090  525955.000000  103867.667159  14383.297791
    6707.7240  570696.620000  113165.093281  15706.156276
    6713.0420  565382.810000  112746.850165  15681.505770
    6718.3690  565044.500000  113286.214616  15797.401889
    6723.7050  566477.750000  114211.021542  15965.829839
    6729.0490  567948.440000  115161.401990  16138.773037
    6734.4030  568013.690000  115848.293503  16276.258634
    6739.7660  574660.500000  117893.707149  16607.268013
    6745.1370  572972.750000  118167.624005  16694.814444
    6750.6140  560062.560000  116011.055404  16442.878931
    6756.0030  571633.940000  119253.063776  16938.494647
    6761.4980  568766.750000  119487.459015  17014.610572
    6766.9060  582421.120000  122911.398691  17553.261269
    6772.4200  569874.000000  121011.947908  17328.460818
    6777.9430  587246.440000  125349.841653  17999.168482
    6783.4760  588383.370000  126311.455410  18183.429735
    6789.0180  589182.810000  127216.391807  18365.180524
