# XDI/1.0
# Column.1: energy eV
# Column.2: i0
# Column.3: itrans
# Column.4: irefer
# Beamline.name: SSRL 2-3
# Beamline.notes: vert slits = 0.6mm
# Detector.I0: N2 15cm
# Detector.I1: N2 30cm
# Detector.I2: N2 15cm
# Element.edge: K
# Element.symbol: Cr
# Mono.d_spacing: 3.13550
# Mono.name: Si(111)
# Mono.notes: unfocused, detuned 75%, clockwise at E=5990eV
# Sample.formula: Na2CrO4
# Sample.name: Na2CrO4
# Sample.prep: powder on tape (4 layers)
# Sample.reference: Cr foil
# Sample.temperature: 15K
# Scan.start_time: 1997-04-18 15:04:31
# ///
#    Note: mono d_spacing is nominal!
#     exafs to K16
#     396  E XMU XMUR I0
#-------------
#   energy   i0   itrans  irefer
    5759.9890  239151.800000  12307.705095  1562.300629
    5769.9800  239112.800000  12549.695560  1602.298895
    5780.0070  238830.800000  12781.698607  1642.299430
    5790.0030  238552.800000  13015.704534  1682.301287
    5799.9650  238360.800000  13260.696266  1726.300177
    5810.0340  238255.800000  13513.698659  1768.300448
    5820.0000  238032.800000  13759.706183  1812.301309
    5830.0020  237664.800000  14010.699358  1856.300034
    5839.9710  237528.800000  14259.707164  1902.300378
    5849.9750  237047.800000  14501.698907  1943.300485
    5860.0160  236981.800000  14769.693502  1993.299578
    5870.0220  236600.800000  15024.697285  2039.299431
    5879.9930  236262.800000  15282.704204  2088.300850
    5890.0000  236092.800000  15551.699855  2136.299119
    5899.9710  235666.800000  15809.704226  2185.299616
    5909.9780  235290.800000  16076.702848  2234.300483
    5920.0210  234906.800000  16336.695574  2284.300475
    5930.0260  234587.800000  16599.705122  2334.299699
    5939.9950  234282.800000  16871.704565  2387.299791
    5949.9990  233981.800000  17147.704814  2437.301134
    5959.9650  233462.800000  17402.706666  2486.300219
    5969.9670  232941.800000  17649.697368  2534.300436
    5970.4870  232818.800000  17650.700458  2536.300361
    5971.0060  232594.800000  17653.708663  2537.300914
    5971.5260  231998.800000  17622.706265  2531.300492
    5971.9720  230795.800000  17547.707891  2522.300386
    5972.4920  229069.800000  17429.701968  2508.301324
    5973.0120  229045.800000  17434.708898  2506.301057
    5973.5320  230816.800000  17580.693193  2528.297932
    5973.9780  232220.800000  17705.700382  2547.299156
    5974.4980  232752.800000  17765.705581  2554.301871
    5975.0190  232853.800000  17783.708561  2558.302081
    5975.4640  232858.800000  17794.692902  2559.298663
    5975.9850  233052.800000  17824.698244  2566.299652
    5976.5060  232918.800000  17826.710011  2565.301191
    5977.0260  232835.800000  17838.704095  2568.300726
    5977.4730  232671.800000  17835.696614  2569.298429
    5977.9940  232726.800000  17849.709497  2571.301609
    5978.5150  232789.800000  17874.692765  2576.299071
    5979.0370  232791.800000  17886.701287  2577.300393
    5979.4830  232718.800000  17893.702902  2577.301336
    5980.0050  232550.800000  17888.708358  2577.300919
    5980.5260  232560.800000  17910.707103  2579.301682
    5980.9730  232622.800000  17926.700646  2582.299440
    5981.4950  232938.800000  17965.706713  2588.301213
    5982.0160  232920.800000  17978.695645  2590.299437
    5982.4630  233021.800000  17997.700710  2591.300858
    5982.9860  232850.800000  17995.701163  2593.299246
    5983.5070  233000.800000  18020.696214  2597.298554
    5984.0300  233031.800000  18036.706383  2598.301403
    5984.4770  233174.800000  18060.701444  2601.300174
    5984.9990  233010.800000  18062.695772  2603.299827
    5985.5210  232261.800000  18016.701408  2596.299556
    5985.9700  230210.800000  17867.696379  2573.298170
    5986.4920  224235.800000  17422.703887  2505.299221
    5987.0150  211648.800000  16443.697897  2363.298463
    5987.4630  201346.800000  15644.693632  2248.298695
    5987.9860  206407.800000  16046.693624  2302.298159
    5988.5090  217226.800000  16895.696914  2418.300375
    5989.0320  223491.800000  17388.702684  2479.301146
    5989.4800  226619.800000  17627.703437  2498.300557
    5990.0030  228420.800000  17763.708753  2484.301521
    5990.5260  229213.800000  17812.709021  2425.299914
    5990.9750  229602.800000  17817.709163  2361.301286
    5991.4990  229874.800000  17783.708989  2299.300193
    5992.0210  230007.800000  17702.700904  2239.299786
    5992.4710  230496.800000  17633.702390  2196.299677
    5992.9950  230545.800000  17413.705023  2137.300408
    5993.5180  230518.800000  16956.706528  2050.300609
    5993.9670  230313.800000  16167.704884  1934.300431
    5994.4920  230415.800000  14729.694685  1742.298995
    5995.0160  230495.800000  13809.705485  1617.300888
    5995.4650  230672.800000  14349.703159  1673.300890
    5995.9890  230490.800000  15792.702218  1834.300020
    5996.5140  230367.800000  16840.693036  1954.298220
    5996.9630  230108.800000  17249.708427  2001.300543
    5997.4880  230343.800000  17490.694129  2029.300141
    5998.0120  230631.800000  17617.707416  2036.300130
    5998.5380  230362.800000  17623.697715  2018.299767
    5998.9870  230380.800000  17600.698557  1992.299685
    5999.5130  230019.800000  17501.706530  1941.301049
    6000.0370  230065.800000  17401.707872  1888.300758
    6000.4870  229809.800000  17261.697167  1840.298911
    6001.0130  229165.800000  17051.697503  1779.299521
    6001.4620  227562.800000  16810.694214  1723.298599
    6001.9880  226052.800000  16587.702379  1670.300583
    6002.5130  226546.800000  16522.705834  1637.300004
    6002.9640  228216.800000  16547.698924  1619.300157
    6003.4900  229603.800000  16526.699338  1598.299441
    6004.0160  229931.800000  16399.695100  1567.298981
    6004.4660  230045.800000  16260.704324  1538.300783
    6004.9930  230027.800000  16063.701657  1503.300721
    6005.5180  230015.800000  15848.692459  1468.299608
    6005.9700  229964.800000  15639.695314  1439.299092
    6006.4960  229947.800000  15379.697979  1401.299929
    6007.0220  230114.800000  15096.702082  1362.299819
    6007.4730  229969.800000  14827.699153  1326.299848
    6008.0000  229757.800000  14487.695611  1282.299192
    6008.5260  229765.800000  14158.703584  1242.300036
    6008.9780  229911.800000  13919.695186  1210.299388
    6009.5040  229962.800000  13668.700126  1176.299574
    6010.0320  229873.800000  13461.697931  1148.299856
    6010.9360  229716.560000  13151.452399  1105.063944
    6011.8390  229621.840000  12883.723646  1087.357871
    6012.8180  229731.640000  12769.516985  1100.181147
    6013.7980  229843.950000  12777.803964  1132.534000
    6014.7780  229996.800000  12780.625556  1158.415816
    6015.7580  229890.160000  12775.938915  1169.825544
    6016.8150  230005.030000  12777.785792  1171.765022
    6017.7960  230136.420000  12760.140177  1164.233888
    6018.9290  230469.340000  12730.998400  1145.232689
    6019.9860  230514.780000  12700.380858  1130.760010
    6021.1200  230757.730000  12699.268232  1120.816427
    6022.1770  230860.200000  12688.680953  1121.401601
    6023.3880  230945.200000  12694.596785  1129.517390
    6024.5220  231072.720000  12684.026757  1136.161489
    6025.7330  231490.750000  12673.978011  1138.335282
    6026.8690  231896.300000  12664.442822  1131.038559
    6028.1570  232293.370000  12706.416457  1124.270183
    6029.3690  232534.970000  12778.903183  1122.031209
    6030.5820  232712.080000  12868.905578  1123.321567
    6031.8720  233050.700000  12957.425564  1126.141318
    6033.1610  233480.860000  13052.453239  1130.489928
    6034.5280  233869.530000  13102.989310  1135.366374
    6035.8190  234311.720000  13137.048464  1140.774441
    6037.1870  234724.420000  13161.621665  1139.711483
    6038.5550  235338.660000  13198.703210  1138.176685
    6040.0000  235439.410000  13210.296957  1133.170661
    6041.3700  236074.670000  13297.408323  1137.694849
    6042.8160  236335.450000  13426.027773  1149.747317
    6044.2640  237303.770000  13619.165796  1171.330228
    6045.7120  237592.590000  13766.820700  1190.441683
    6047.2370  238229.940000  13957.979358  1210.082261
    6048.7630  238790.800000  14111.666333  1228.251797
    6050.2890  239605.190000  14193.860715  1244.952687
    6051.8160  239615.090000  14246.565274  1261.181329
    6053.4220  240462.520000  14383.780756  1290.938193
    6054.9510  240933.450000  14505.512568  1315.225001
    6056.5570  241868.920000  14668.758008  1344.041240
    6058.2410  242491.910000  14808.514938  1369.385842
    6059.8490  243171.410000  14934.792912  1390.259730
    6061.5350  243378.420000  15027.585057  1406.664805
    6063.2220  244056.970000  15146.881689  1418.597463
    6064.9100  244582.030000  15240.688916  1424.058301
    6066.6760  245311.610000  15347.019410  1422.049698
    6068.3650  245940.700000  15441.866892  1415.570245
    6070.1330  246866.330000  15559.229757  1408.622133
    6071.9020  247637.470000  15641.096825  1399.200304
    6073.7490  248491.120000  15735.465448  1397.306019
    6075.5210  249563.300000  15840.367556  1415.944204
    6077.3690  250457.000000  15925.781103  1441.110863
    6079.2200  251453.220000  16013.705803  1470.806615
    6081.1490  252338.950000  16098.131727  1499.029987
    6083.0020  253339.200000  16185.087640  1530.785959
    6084.9340  254190.980000  16274.555473  1558.069998
    6086.8660  255208.280000  16386.535575  1577.881297
    6088.8000  256130.090000  16497.015396  1582.222461
    6090.8130  257076.420000  16625.030062  1570.093850
    6092.8270  257977.280000  16761.549097  1548.495043
    6094.8430  259148.660000  16909.572368  1525.423191
    6096.8590  260172.550000  17044.116396  1505.880933
    6098.8780  261614.950000  17205.184559  1492.870484
    6100.9750  262748.910000  17334.762203  1491.387450
    6103.0750  264102.340000  17479.848088  1508.433477
    6105.1750  265183.310000  17582.433776  1540.007556
    6107.2770  266230.810000  17656.546821  1581.110802
    6109.4590  267078.810000  17719.182032  1626.746135
    6111.6430  268685.340000  17840.318054  1675.909420
    6113.8270  269718.410000  17937.984235  1715.601055
    6116.0130  271073.970000  18089.139592  1748.820806
    6118.2800  272468.060000  18255.828451  1771.572192
    6120.4700  273677.660000  18397.025437  1782.853179
    6122.7400  275218.780000  18556.726632  1790.661930
    6125.0110  276266.440000  18676.961564  1800.000175
    6127.3630  277813.590000  18840.679761  1821.868002
    6129.6390  278840.280000  18972.947424  1845.265454
    6131.9950  280321.500000  19149.702088  1876.190064
    6134.3520  281877.220000  19347.971580  1906.643919
    6136.7900  283007.470000  19518.764659  1927.628119
    6139.1510  284536.220000  19734.069466  1948.142894
    6141.5940  285885.500000  19938.895683  1967.184595
    6144.0380  287521.310000  20173.219939  1986.757632
    6146.4840  288850.620000  20378.077052  2000.859161
    6148.9320  290326.470000  20587.416681  2010.487135
    6151.4620  291850.840000  20801.307594  2019.649234
    6153.9940  293285.720000  21012.684674  2036.336352
    6156.5280  295021.120000  21248.577395  2057.554099
    6159.0640  296356.030000  21454.996077  2067.302331
    6161.6030  298096.470000  21680.931878  2071.579084
    6164.2220  299606.440000  21904.360941  2069.383521
    6166.8440  301197.910000  22143.313050  2081.718089
    6169.4700  302880.910000  22396.791051  2111.582554
    6172.0960  304462.440000  22635.754865  2157.973808
    6174.8060  306230.470000  22892.262890  2214.897193
    6177.5170  307988.030000  23136.279313  2272.350864
    6180.2310  309960.090000  23408.788933  2324.329353
    6182.9480  311605.690000  23650.814981  2368.838083
    6185.6670  313080.810000  23891.370723  2408.878620
    6188.4690  314884.440000  24174.436077  2443.446920
    6191.2730  316787.590000  24457.000310  2478.542005
    6194.0810  318051.280000  24689.094493  2510.170371
    6196.8910  320133.470000  24979.712679  2549.328529
    6199.7030  321326.190000  25187.825820  2581.012530
    6202.5990  323176.410000  25448.462666  2616.227344
    6205.4980  325155.160000  25717.597463  2651.969267
    6208.3990  326910.440000  25967.253140  2692.241854
    6211.3040  328869.220000  26242.419441  2740.044508
    6214.2100  330821.530000  26506.103989  2784.376710
    6217.2020  332427.370000  26748.312845  2817.236388
    6220.1960  334145.720000  27001.007639  2841.622481
    6223.1930  335948.590000  27262.254932  2855.546211
    6226.1930  337804.970000  27516.992340  2867.993674
    6229.1960  339603.870000  27776.236421  2879.969921
    6232.2840  342079.310000  28106.015011  2891.477482
    6235.3750  342844.250000  28293.278353  2894.511225
    6238.4690  346517.720000  28731.065452  2922.074933
    6241.5650  338353.720000  28181.390736  2855.171345
    6244.7480  347397.220000  29086.200482  2941.794742
    6247.8520  349848.250000  29431.528245  2987.943891
    6251.0410  352608.780000  29804.404076  3050.630133
    6254.2330  354623.840000  30120.759610  3125.838672
    6257.4290  356253.440000  30420.641894  3201.579839
    6260.7100  358077.530000  30733.016330  3272.847913
    6263.9130  359848.160000  31051.905172  3322.645041
    6267.2020  360914.310000  31313.319862  3357.973146
    6270.4940  362884.970000  31653.252154  3399.828187
    6273.7900  365567.160000  32052.718828  3452.218302
    6277.1720  366573.840000  32324.678361  3491.135266
    6280.4750  368919.090000  32705.143258  3544.578850
    6283.8650  372317.810000  33189.110247  3604.549572
    6287.2580  374194.090000  33546.603456  3644.049707
    6290.6550  375145.840000  33818.630776  3681.086146
    6294.0560  375588.160000  34037.138045  3710.643174
    6297.5440  377510.970000  34406.194742  3770.737584
    6300.9540  379113.310000  34747.726012  3820.354164
    6304.4500  381566.190000  35192.793623  3885.502562
    6307.9500  384032.560000  35629.371529  3944.184993
    6311.5380  387173.440000  36121.482014  4003.391024
    6315.0470  388443.870000  36444.103674  4040.129236
    6318.5600  390344.810000  36856.222946  4077.395704
    6322.1610  392148.250000  37237.821697  4110.184661
    6325.7660  394552.220000  37664.970634  4149.511023
    6329.3750  396550.720000  38068.644039  4192.364742
    6333.0730  398498.750000  38474.833855  4239.750238
    6336.6910  400325.280000  38863.496496  4285.659360
    6340.3970  401989.310000  39239.719887  4336.100736
    6344.1090  404622.910000  39725.430404  4407.072104
    6347.8260  407220.000000  40199.661691  4480.571387
    6351.5460  409583.590000  40645.413860  4546.601403
    6355.2710  412429.720000  41148.637479  4622.153932
    6359.0850  413940.370000  41529.413268  4690.240824
    6362.8190  416498.560000  42000.730216  4770.862014
    6366.6450  418202.250000  42405.504087  4843.003893
    6370.4730  421251.440000  42928.798742  4925.677852
    6374.3070  423475.190000  43392.643804  4998.885208
    6378.2300  426200.440000  43908.975481  5068.615747
    6382.0750  428087.190000  44345.839324  5126.883090
    6386.0090  430717.500000  44872.198808  5193.674396
    6389.9480  433422.280000  45399.064325  5268.988956
    6393.8930  435103.620000  45819.474566  5330.842054
    6397.8420  438091.470000  46380.389239  5408.223817
    6401.8820  439837.840000  46842.790567  5468.126830
    6405.8430  444388.720000  47585.718034  5567.564331
    6409.8940  448081.120000  48256.150321  5657.529356
    6413.9500  450672.030000  48824.140296  5732.030717
    6418.0130  452018.500000  49262.596834  5801.051001
    6422.0810  454258.440000  49809.577618  5882.608507
    6426.1530  456597.940000  50356.072743  5958.687403
    6430.3180  458697.940000  50884.121020  6035.308131
    6434.4020  461135.470000  51457.635681  6105.444176
    6438.5790  462846.500000  51954.662623  6163.115826
    6442.7610  464930.060000  52512.224267  6238.314200
    6446.9490  467808.120000  53152.291189  6334.046009
    6451.2300  471045.750000  53848.859440  6441.305410
    6455.4300  473622.840000  54466.961604  6545.091038
    6459.7230  477554.500000  55277.573818  6667.408739
    6463.9340  480004.660000  55898.738465  6761.263712
    6468.2390  480294.340000  56277.348827  6828.630386
    6472.5500  483438.530000  56988.481664  6933.537685
    6476.9550  487021.250000  57771.163894  7047.970878
    6481.2780  489413.500000  58431.360200  7148.937437
    6485.6070  491535.250000  59035.009911  7251.422498
    6490.0310  492972.530000  59593.258330  7333.452778
    6494.4610  494626.310000  60143.931517  7418.994591
    6498.8980  496359.620000  60728.171716  7502.075416
    6503.3410  501019.470000  61679.952713  7635.687364
    6507.7900  505818.810000  62651.180388  7772.823803
    6512.3350  510089.690000  63564.972578  7915.497708
    6516.7970  511493.090000  64132.231946  8007.687966
    6521.3550  512844.000000  64692.074985  8105.417825
    6525.9200  514447.440000  65299.370272  8209.675458
    6530.4920  519351.370000  66308.206485  8359.458628
    6535.0690  520548.840000  66884.531122  8450.771310
    6539.6550  520253.840000  67233.379726  8513.616699
    6544.2470  516072.340000  67093.753648  8514.988380
    6548.9360  515487.370000  67427.625152  8568.886573
    6553.5410  516916.940000  68016.015803  8661.311928
    6558.2440  518200.000000  68599.913111  8755.274057
    6562.9540  520716.590000  69358.376173  8874.765572
    6567.6710  523466.690000  70150.322152  9002.788826
    6572.3950  526761.310000  71015.738660  9140.330310
    6577.2180  528576.500000  71705.721639  9253.404558
    6581.9560  531039.120000  72468.188832  9386.013830
    6586.7920  532841.310000  73146.161374  9499.143627
    6591.5460  534731.000000  73847.696487  9616.811999
    6596.3970  535417.250000  74401.667146  9716.003287
    6601.2570  536973.000000  75055.197830  9831.729050
    6606.1250  538766.250000  75773.286022  9951.982757
    6611.0910  541722.060000  76670.810246  10087.752512
    6615.9730  543627.370000  77407.914550  10215.069485
    6620.9550  546405.190000  78297.510393  10356.908726
    6625.8530  551168.500000  79445.604713  10535.279421
    6630.8500  553761.370000  80309.173428  10672.174646
    6635.8550  555718.750000  81090.297762  10805.597868
    6640.8690  557753.690000  81879.974483  10943.563215
    6645.8910  559789.060000  82672.170524  11083.051330
    6650.9190  561671.000000  83475.841715  11215.068426
    6655.9570  564672.500000  84431.024006  11376.614821
    6661.0960  567592.440000  85384.674224  11540.673550
    6666.1500  568872.940000  86101.867849  11663.276037
    6671.3050  570513.000000  86898.602989  11813.405619
    6676.4690  571752.500000  87613.860073  11937.076222
    6681.6420  574295.560000  88525.546970  12092.255141
    6686.8220  576198.120000  89347.884064  12230.985902
    6692.0110  576767.250000  89987.593028  12348.218548
    6697.3030  576014.870000  90448.938530  12441.000080
    6702.5090  557084.000000  88091.675253  12141.302095
    6707.7240  598819.620000  95167.016606  13151.139614
    6713.0420  593571.810000  94922.825741  13149.506124
    6718.3690  595016.500000  95746.218734  13299.402857
    6723.7050  596892.750000  96633.111246  13453.838410
    6729.0490  597594.440000  97356.483538  13594.785905
    6734.4030  599203.690000  98206.321832  13753.269675
    6739.7660  605047.500000  99752.684466  14002.263111
    6745.1370  606874.750000  100704.594781  14172.811230
    6750.6140  591563.560000  98735.063166  13933.891826
    6756.0030  591265.940000  99338.965836  14060.478229
    6761.4980  601988.750000  101924.440303  14456.610116
    6766.9060  616498.120000  104911.409306  14929.263395
    6772.4200  599915.000000  102752.889899  14665.458671
    6777.9430  623809.440000  107474.857567  15388.168534
    6783.4760  624955.370000  108370.427114  15552.419777
    6789.0180  626057.810000  109247.474290  15720.203231
    6794.5690  627751.750000  110205.938733  15906.483378
