# XDI/1.0
# Column.1: energy eV
# Column.2: i0
# Column.3: itrans
# Column.4: irefer
# Beamline.name: SSRL 4-1
# Detector.I0: N2 15cm
# Detector.I1: N2 30cm
# Detector.I2: N2 15cm
# Element.edge: K
# Element.symbol: Ni
# Mono.d_spacing: 3.13550
# Mono.name: Si(111)
# Mono.notes: unfocused, detuned 25%,counter clockwise
# Sample.formula: NiS
# Sample.name: NiS   nickel sulfide
# Sample.prep: powder, mixed 1:150 with B(OH)3 by wt
# Sample.reference: none
# Sample.temperature: room temperature
# Scan.start_time: 1997-01-17 13:11:19
# ///
#    Note: mono d_spacing is nominal!
#     exafs to K17
#     507  E XMU XMUR I0
#-------------
#   energy   i0   itrans  irefer
    8110.0000  227187.590000  105609.598695  387011.057076
    8120.0030  226910.590000  106332.604859  391015.015961
    8130.0020  226752.590000  107132.599105  394935.046130
    8139.9990  226591.590000  107927.600226  398820.975821
    8149.9980  226241.590000  108655.596045  402444.907059
    8160.0000  225900.590000  109374.605219  406247.969406
    8169.9980  225621.590000  110110.600021  409706.199155
    8179.9990  225111.590000  110764.600680  413210.122520
    8190.0020  224717.590000  111458.604099  416569.060040
    8200.0010  224166.590000  112084.604203  419843.902215
    8209.9970  223782.590000  112776.603321  423070.105848
    8220.0010  223537.590000  113533.595399  426320.234409
    8230.0010  223259.590000  114293.599878  429516.249897
    8240.0020  222916.590000  115016.599982  432566.237795
    8250.0010  222303.590000  115595.597336  435490.015796
    8260.0000  222033.590000  116360.598453  438497.002828
    8270.0000  221437.590000  116918.602676  441221.928927
    8280.0020  219928.590000  117033.603475  443690.879560
    8290.0000  219991.590000  117877.602402  446281.901435
    8299.9990  218668.590000  117912.602819  449946.054176
    8310.0000  219950.590000  119523.598662  451636.128516
    8310.4970  219794.590000  119485.595981  452133.200767
    8311.0000  219720.590000  119502.595847  452557.168192
    8311.4980  219817.590000  119582.602401  453019.135388
    8312.0010  219622.590000  119507.600660  453314.875397
    8312.4990  219403.590000  119418.605110  453510.313143
    8313.0030  219467.590000  119485.600697  453928.123786
    8313.5000  219191.590000  119391.604874  454236.908828
    8313.9980  219010.590000  119321.601901  454486.124870
    8314.5020  219060.590000  119385.596126  454953.200773
    8315.0000  218844.590000  119301.600313  455126.200033
    8315.4980  218992.590000  119406.602127  455378.296152
    8316.0020  219098.590000  119498.594663  455456.226031
    8316.5000  219582.590000  119801.598179  455760.305729
    8316.9980  219295.590000  119680.602178  455904.129818
    8317.5030  219231.590000  119672.597474  456076.090011
    8318.0010  219290.590000  119742.600751  456216.029049
    8318.4990  219248.590000  119743.601201  456300.142495
    8318.9980  218936.590000  119606.602460  456224.970636
    8319.5030  218702.590000  119505.604556  456100.997310
    8320.0010  218786.590000  119556.597658  455992.280125
    8320.4990  217975.590000  119129.600943  455475.980908
    8320.9980  217439.590000  118843.602598  454964.031794
    8321.5030  216472.590000  118333.597636  454186.875933
    8322.0020  215135.590000  117642.595970  453291.850903
    8322.5000  214134.590000  117147.595827  452579.139860
    8323.0000  212622.590000  116390.604670  451640.186902
    8323.4990  211512.590000  115827.605235  451152.276265
    8323.9980  210296.590000  115190.602296  450386.979494
    8324.5030  209734.590000  114873.597794  449711.098938
    8325.0020  209455.590000  114671.605154  449190.213440
    8325.5010  209909.590000  114841.603057  448881.895518
    8326.0000  210440.590000  115054.597953  448624.296126
    8326.5000  211916.590000  115777.605139  448978.119019
    8326.9990  213231.590000  116430.595890  449169.064294
    8327.4990  214710.590000  117194.603201  448846.890425
    8327.9980  216172.590000  117958.600114  448054.876190
    8328.4980  217611.590000  118711.594567  446732.944479
    8328.9980  218597.590000  119175.601822  444236.043636
    8329.4970  219223.590000  119385.597281  440378.933110
    8329.9970  219658.590000  119354.597993  433873.873292
    8330.5030  219617.590000  118984.604002  424233.116245
    8331.0030  219816.590000  118580.602216  407814.297184
    8331.4970  219573.590000  117918.597921  385545.239261
    8331.9970  219759.590000  117462.598951  360101.154288
    8332.4970  219324.590000  116592.596686  328247.132899
    8332.9980  219342.590000  115980.601122  299399.093846
    8333.4970  219131.590000  115007.600438  266054.085470
    8333.9980  219072.590000  114064.597892  238366.078306
    8334.4980  218767.590000  112810.603063  213864.092914
    8334.9990  218705.590000  111508.596600  194541.087490
    8335.5000  218410.590000  109905.601778  179500.094018
    8335.9990  218212.590000  107879.597913  165396.094705
    8336.5000  218192.590000  106017.599479  155129.090642
    8337.0010  218121.590000  103929.601325  145260.089977
    8337.5020  217906.590000  102006.596700  136987.089577
    8338.0030  217806.590000  100208.595375  129092.095359
    8338.4970  217629.590000  98410.596788  120873.094471
    8338.9980  217586.590000  96972.602121  113825.103014
    8339.4990  217574.590000  95526.599191  106346.096242
    8340.0000  217299.590000  94241.600262  99953.100449
    8340.5020  217595.590000  93194.597030  93571.097016
    8341.0030  217755.590000  92190.601287  87498.101593
    8341.4980  217542.590000  91202.603831  81774.106533
    8341.9990  217542.590000  90351.601957  75747.099062
    8342.5010  217500.590000  89714.603820  70524.104781
    8343.0030  217934.590000  89310.599111  64770.099662
    8343.4980  217954.590000  88898.603909  59378.103968
    8343.9990  217901.590000  88521.604321  53959.104677
    8344.5010  217869.590000  88213.602350  48699.101137
    8345.0020  218050.590000  88028.603381  44324.102345
    8345.4980  217996.590000  87710.596649  39630.099601
    8346.0000  218094.590000  87476.603389  35866.103877
    8346.5020  218380.590000  87275.603361  32399.100702
    8346.9980  218023.590000  86824.597942  29534.112994
    8347.5000  218408.590000  86658.601170  27314.106070
    8348.0010  218293.590000  86285.597885  25330.107294
    8348.4980  217989.590000  85893.599002  24038.105715
    8349.0000  217750.590000  85521.604246  23063.102019
    8349.5020  217915.590000  85344.600651  22553.092269
    8349.9990  217794.590000  85049.596188  22254.106890
    8350.5010  217754.590000  84785.598107  22167.088629
    8350.9980  217487.590000  84465.603425  22190.103283
    8351.5000  217535.590000  84253.597560  22340.099987
    8352.0020  217452.590000  84038.602744  22472.093483
    8352.4990  217467.590000  83826.604055  22601.096616
    8353.0020  217099.590000  83491.596690  22604.092825
    8353.4990  217142.590000  83314.602549  22552.092028
    8354.0010  217297.590000  83184.596839  22357.105646
    8354.4980  217492.590000  83110.602501  22075.100099
    8355.0010  217182.590000  82832.602038  21567.094025
    8355.4980  217081.590000  82674.604384  21059.093743
    8356.0020  217174.590000  82625.602677  20519.108876
    8356.4980  217556.590000  82712.604322  20046.107607
    8357.0010  216988.590000  82465.602872  19584.105072
    8357.4980  217205.590000  82547.602288  19279.090684
    8358.0020  217422.590000  82653.599888  19148.097801
    8358.4990  217254.590000  82639.600589  19108.093555
    8359.0030  216945.590000  82584.596887  19183.090441
    8359.5000  217210.590000  82746.601488  19405.100498
    8359.9980  217015.590000  82786.598488  19671.092932
    8360.5010  217338.590000  83004.602667  19996.096112
    8360.9990  217125.590000  83052.599990  20315.093702
    8361.5030  217179.590000  83196.602774  20634.109655
    8362.0000  217083.590000  83303.601767  20973.102570
    8362.4980  216986.590000  83428.598178  21341.107757
    8363.0020  217042.590000  83599.597172  21711.101109
    8363.5000  217270.590000  83853.601182  22148.093826
    8363.9980  217131.590000  83929.601937  22502.094084
    8364.5020  217003.590000  84020.599186  22910.103112
    8365.0000  217096.590000  84163.603869  23305.108133
    8365.4980  216926.590000  84209.597674  23648.103025
    8366.0030  217011.590000  84332.596448  23992.096467
    8366.5010  217464.590000  84584.601331  24298.101815
    8367.0000  217242.590000  84566.597107  24506.107088
    8367.4980  216966.590000  84522.602056  24642.090544
    8368.0030  217037.590000  84607.597229  24794.108497
    8368.5010  216885.590000  84601.600044  24879.102137
    8368.9990  216979.590000  84686.600856  24955.104584
    8369.4980  216734.590000  84666.602240  24962.088588
    8369.9970  216854.590000  84767.603598  24974.103719
    8370.7060  216760.580000  84838.582910  24872.093362
    8371.4280  216711.550000  84935.505241  24690.096372
    8372.1610  216877.470000  85141.377515  24393.071564
    8372.9060  217000.360000  85354.196190  23989.053269
    8373.6640  217114.230000  85574.968864  23516.041859
    8374.4290  217032.060000  85740.696503  22888.018970
    8375.2110  217479.870000  86113.362301  22305.975328
    8376.0050  217640.640000  86382.979705  21665.944767
    8376.8120  217806.390000  86674.554261  20953.890830
    8377.6300  217928.110000  86930.081772  20267.855087
    8378.4610  218119.800000  87210.545055  19621.801179
    8379.3040  218658.450000  87647.967594  19033.744369
    8380.1590  219067.090000  87992.336894  18566.682851
    8381.0270  219203.690000  88213.656698  18225.610748
    8381.9070  219485.250000  88495.918480  18059.546412
    8382.7990  220182.800000  88919.139377  18135.464946
    8383.7040  220458.300000  89148.316601  18366.391791
    8384.6200  220863.780000  89402.427172  18812.298498
    8385.5560  221072.230000  89539.492120  19415.210023
    8386.4960  222058.660000  89956.505492  20287.101321
    8387.4500  222477.050000  90119.480429  21195.997151
    8388.4150  223069.410000  90311.389193  22128.902923
    8389.3940  223731.730000  90507.253819  23108.788511
    8390.3850  224109.030000  90541.071321  24017.664357
    8391.3870  224737.300000  90650.836461  24899.560794
    8392.4020  225619.550000  90840.550168  25690.435772
    8393.4300  226131.750000  90876.213931  26303.297039
    8394.4690  226815.940000  90978.830863  26792.147787
    8395.5210  227524.090000  91091.393154  27097.008190
    8396.5850  228525.220000  91302.902348  27290.879885
    8397.6620  229318.310000  91455.355795  27371.708361
    8398.7520  229991.370000  91567.772986  27429.563360
    8399.8540  230906.410000  91782.135557  27576.409443
    8400.9680  231936.410000  92059.447723  27798.235272
    8402.0940  232871.370000  92313.698293  28036.060064
    8403.2330  233858.330000  92619.916976  28236.887899
    8404.3840  234582.230000  92849.071468  28306.693253
    8405.5480  236043.120000  93388.181442  28332.506929
    8406.7240  236979.970000  93746.236758  28162.337138
    8407.9130  238118.800000  94212.239939  27941.138717
    8409.1080  239214.590000  94697.198343  27711.941329
    8410.3210  240687.360000  95354.109470  27590.718499
    8411.5480  241591.090000  95814.965250  27416.523696
    8412.7860  242452.800000  96268.778194  27212.299328
    8414.0310  243788.480000  96924.523181  26966.074180
    8415.2950  244946.120000  97524.230784  26601.852813
    8416.5710  246462.730000  98273.881046  26230.616187
    8417.8540  248072.330000  99106.492802  25872.379132
    8419.1560  249477.890000  99870.035332  25507.147169
    8420.4630  250646.410000  100574.547716  25136.908415
    8421.7900  251787.910000  101305.996621  24755.646543
    8423.1230  253308.370000  102197.396234  24347.403229
    8424.4690  254593.810000  102988.751464  23863.134372
    8425.8340  256248.220000  103958.053296  23367.881268
    8427.2050  257802.610000  104895.300499  22891.592756
    8428.5880  259201.950000  105756.511193  22484.324727
    8429.9840  260524.270000  106603.657734  22242.054058
    8431.3950  262339.560000  107644.754490  22270.757503
    8432.8150  263850.810000  108524.801246  22531.463942
    8434.2500  265339.060000  109401.804007  23069.176593
    8435.6970  267183.250000  110411.749253  23897.875232
    8437.1560  268925.410000  111350.652647  24897.571159
    8438.6240  270784.560000  112329.489519  26073.264044
    8440.1090  272556.690000  113281.291311  27338.939170
    8441.6060  273857.750000  114053.040872  28620.624978
    8443.1110  275773.810000  115087.729268  30045.313760
    8444.6350  277727.810000  116149.381401  31387.983649
    8446.1660  279704.810000  117203.975481  32573.621261
    8447.7090  281318.780000  118113.517499  33644.283978
    8449.2650  283276.720000  119120.016761  34893.952350
    8450.8330  284981.620000  119985.462182  36406.618570
    8452.4150  287235.500000  121028.848771  38177.255662
    8454.0100  288946.340000  121802.197396  39954.903121
    8455.6170  291177.160000  122748.491719  41736.518091
    8457.2380  292953.940000  123467.726162  43058.161522
    8458.8650  295130.690000  124346.916772  43920.772032
    8460.5110  296938.410000  125056.063351  44187.420458
    8462.1640  299491.090000  126075.151236  44066.998436
    8463.8300  301615.750000  126894.185770  43481.630270
    8465.5160  303927.410000  127790.178699  42595.247669
    8467.2080  305638.000000  128409.117219  41515.854695
    8468.9060  308175.590000  129411.004109  40549.417600
    8470.6250  310224.120000  130205.842756  39603.028951
    8472.3550  312285.660000  131058.638587  38986.594094
    8474.0940  314639.120000  132049.378380  38784.199382
    8475.8510  317016.590000  133105.055433  39014.747157
    8477.6140  319616.000000  134271.702169  39615.338345
    8479.3980  321679.410000  135267.287507  40275.918256
    8481.1880  323931.780000  136357.817003  40791.447448
    8482.9920  326360.120000  137562.290213  40820.027630
    8484.8030  329245.410000  138967.737205  40179.575716
    8486.6330  331319.690000  140083.131117  38675.102242
    8488.4760  333992.940000  141466.459695  36895.649893
    8490.3250  336252.160000  142686.733827  35093.206148
    8492.1890  338918.340000  144106.973226  33822.724309
    8494.0650  341742.500000  145623.151328  33068.234192
    8495.9540  344143.660000  146967.281397  32764.774380
    8497.8580  347034.750000  148560.371695  32832.287921
    8499.7740  349559.810000  150031.410757  33118.786098
    8501.6970  352229.840000  151591.396012  33710.309723
    8503.6340  354465.870000  152984.309660  34635.818553
    8505.5900  357485.840000  154743.182081  36157.299579
    8507.5470  360386.780000  156486.014786  38292.790604
    8509.5240  362616.720000  157968.794234  40886.278128
    8511.5140  365820.590000  159849.527877  44279.770370
    8513.5110  368157.470000  161329.209093  48162.227608
    8515.5280  371689.280000  163299.842652  52762.728215
    8517.5530  374719.090000  165009.401642  57693.207864
    8519.5840  377318.870000  166478.944002  62220.650047
    8521.6350  379853.620000  167907.421999  65907.099557
    8523.6990  382939.310000  169546.837672  68243.549522
    8525.7710  385767.000000  171063.213925  68835.999750
    8527.8560  388586.660000  172551.545788  67895.442259
    8529.9550  391729.280000  174185.807554  65954.881127
    8532.0670  395107.870000  175910.037929  63663.329147
    8534.1880  397553.440000  177224.211983  61270.755989
    8536.3270  400807.970000  178896.340511  59359.165163
    8538.4740  403999.470000  180524.403139  57936.580119
    8540.6350  406778.970000  181934.433500  57024.977105
    8542.8030  409938.410000  183501.405874  56783.417002
    8544.9900  413402.810000  185156.320602  57175.783566
    8547.1870  416122.190000  186452.206923  57875.198551
    8549.3960  419384.560000  187967.016501  58862.575799
    8551.6180  423205.870000  189736.800440  60045.994945
    8553.8540  425987.190000  191069.507488  61187.338166
    8556.0990  429272.440000  192670.191658  62604.732584
    8558.3570  432719.690000  194380.805724  64279.139316
    8560.6280  436068.870000  196135.371077  65945.463484
    8562.9070  439559.060000  197967.898364  67152.818016
    8565.2070  442938.220000  199780.367791  67328.229212
    8567.5140  446446.340000  201732.772652  66432.534502
    8569.8350  449864.410000  203661.138362  64727.912730
    8572.1640  453472.470000  205744.449461  62986.276044
    8574.5120  456923.500000  207781.714852  61607.590221
    8576.8690  460198.500000  209773.928134  60741.941192
    8579.2390  463866.470000  211974.085849  60420.232900
    8581.6160  467400.410000  214134.216706  60581.586835
    8584.0090  471287.310000  216470.289709  61350.867304
    8586.4150  475139.190000  218805.299869  62786.199283
    8588.8350  478564.060000  220954.252677  64969.483733
    8591.2700  482001.870000  223100.176756  67949.847324
    8593.7110  485796.660000  225431.026119  71707.134052
    8596.1680  490053.410000  227931.851003  76011.427070
    8598.6310  493467.160000  230068.619844  80329.715744
    8601.1090  497452.840000  232471.318967  84536.961940
    8603.6020  501216.530000  234770.960645  88151.251252
    8606.1080  504869.160000  236991.578464  91002.529842
    8608.6290  508622.780000  239266.128690  93003.789683
    8611.1570  512747.370000  241699.656792  94303.062734
    8613.7000  516206.910000  243809.107668  95067.320120
    8616.2510  520531.440000  246327.509444  95999.567830
    8618.8160  522911.940000  247926.882763  96678.822376
    8621.3960  524514.370000  249135.176080  97282.063016
    8623.9830  531764.810000  253085.431370  98986.304792
    8626.5910  532799.250000  254029.629443  99515.529918
    8629.2070  538186.620000  257033.795779  100718.769975
    8631.8310  545554.940000  261011.903912  101998.990394
    8634.4700  549405.250000  263298.963388  102227.204326
    8637.1240  553575.560000  265716.979613  102242.429793
    8639.7910  557555.810000  268046.937727  102111.627889
    8642.4670  561317.000000  270277.824157  101994.838425
    8645.1580  565627.250000  272791.697834  102185.040505
    8647.8560  569312.370000  274996.470808  102463.236317
    8650.5690  574429.500000  277900.260561  103184.430493
    8653.2970  578541.620000  280383.942953  103781.599759
    8656.0320  582553.690000  282803.596912  104287.786232
    8658.7830  588021.750000  285944.185737  104949.957049
    8661.5490  591242.750000  288016.761350  105043.093219
    8664.3220  595365.750000  290544.259966  105134.335965
    8667.1110  600201.690000  293469.685793  105385.425518
    8669.9140  604347.620000  296081.087831  105939.625616
    8672.7250  608781.560000  298888.447052  107298.794744
    8675.5520  612891.370000  301534.732878  109336.929374
    8678.3870  617772.250000  304588.005565  112196.035925
    8681.2350  622499.060000  307580.185251  115538.166157
    8684.0990  626078.810000  310071.357894  119078.311648
    8686.9730  630985.560000  313248.428802  123026.426018
    8689.8540  634715.310000  315860.470699  126521.552311
    8692.7560  639871.000000  319207.478293  129702.672135
    8695.6670  644527.620000  322407.404244  131939.776044
    8698.5870  649493.250000  325727.304955  133571.877801
    8701.5210  653933.870000  328813.141397  134864.980044
    8704.4710  658006.440000  331685.927116  136444.074290
    8707.4300  663280.000000  335151.686145  139127.172344
    8710.4030  668304.500000  338423.377569  142750.251163
    8713.3860  672642.000000  341374.031114  146917.329114
    8716.3820  676852.440000  344208.640830  150917.418153
    8719.3950  681171.870000  347126.148130  153902.464315
    8722.4160  685887.250000  350246.662273  155907.542555
    8725.4520  690892.620000  353522.104474  157601.613248
    8728.4980  695938.940000  356832.515201  159418.660495
    8731.5510  700743.250000  360009.801498  161126.691210
