# XDI/1.0
# Column.1: energy eV
# Column.2: i0
# Column.3: itrans
# Column.4: irefer
# Beamline.name: SSRL 4-1
# Detector.I0: N2 15cm
# Detector.I1: N2 30cm
# Detector.I2: N2 15cm
# Element.edge: K
# Element.symbol: Ni
# Mono.d_spacing: 3.13550
# Mono.name: Si(111)
# Mono.notes: unfocused, detuned 25%,counter clockwise
# Sample.formula: NiS
# Sample.name: NiS   nickel sulfide
# Sample.prep: powder, mixed 1:150 with B(OH)3 by wt
# Sample.reference: none
# Sample.temperature: room temperature
# Scan.start_time: 1997-01-17 13:11:19
# ///
#    Note: mono d_spacing is nominal!
#     exafs to K17
#     507  E XMU XMUR I0
#-------------
#   energy   i0   itrans  irefer
    8110.0000  230220.590000  107792.602778  392564.963744
    8120.0030  230545.590000  108818.595060  397115.126685
    8130.0020  229929.590000  109399.599775  400235.943364
    8139.9990  229280.590000  109976.602360  403499.253380
    8149.9980  229286.590000  110873.599124  407419.271300
    8160.0000  228787.590000  111556.603693  410725.914986
    8169.9980  228542.590000  112324.598720  414281.163607
    8179.9990  228399.590000  113153.599427  417711.157409
    8190.0020  227885.590000  113809.603199  420900.264742
    8200.0010  227502.590000  114512.595687  424036.197454
    8209.9970  227213.590000  115273.596202  427267.123755
    8220.0010  226754.590000  115960.594563  430355.852909
    8230.0010  226345.590000  116653.603622  433379.111269
    8240.0020  225976.590000  117376.604798  436421.103015
    8250.0010  225336.590000  117950.605566  439225.056960
    8260.0000  225322.590000  118850.596024  442349.020105
    8270.0000  224637.590000  119397.599075  445086.253958
    8280.0020  223042.590000  119458.596648  447509.980282
    8290.0000  222986.590000  120249.594294  449972.979373
    8299.9990  221622.590000  120277.598272  453703.268213
    8310.0000  223104.590000  122015.596285  455327.014943
    8310.4970  223071.590000  122045.600725  455885.987724
    8311.0000  222880.590000  121977.604376  456299.073374
    8311.4980  223307.590000  122255.601631  456944.961102
    8312.0010  222931.590000  122088.605180  457066.115408
    8312.4990  222307.590000  121775.594719  457178.069335
    8313.0030  222504.590000  121901.596184  457660.265560
    8313.5000  222450.590000  121920.599554  458003.126051
    8313.9980  222343.590000  121887.597505  458362.010628
    8314.5020  222290.590000  121904.602227  458685.958622
    8315.0000  222347.590000  121970.605616  459035.283800
    8315.4980  222631.590000  122159.594626  459408.293285
    8316.0020  222764.590000  122266.594765  459511.911244
    8316.5000  222475.590000  122133.595138  459562.287575
    8316.9980  222639.590000  122260.605320  459743.109408
    8317.5030  222483.590000  122204.594726  459871.290044
    8318.0010  222624.590000  122319.601033  460083.180333
    8318.4990  222416.590000  122226.594613  460085.183986
    8318.9980  222465.590000  122276.605669  460178.168795
    8319.5030  222005.590000  122058.600544  460033.936488
    8320.0010  221554.590000  121828.597103  459762.988865
    8320.4990  221200.590000  121645.604583  459451.293338
    8320.9980  220845.590000  121464.600879  459008.105772
    8321.5030  219726.590000  120868.599472  458174.905405
    8322.0020  218786.590000  120382.597070  457546.253349
    8322.5000  217120.590000  119517.596727  456725.070451
    8323.0000  215880.590000  118895.603997  456031.930800
    8323.4990  214704.590000  118287.604269  455435.900458
    8323.9980  213612.590000  117716.600758  454973.896646
    8324.5030  212910.590000  117322.600804  454521.134154
    8325.0020  212468.590000  117025.594312  454123.263036
    8325.5010  212954.590000  117224.599738  453780.114079
    8326.0000  213614.590000  117511.595051  453542.059741
    8326.5000  214947.590000  118156.596184  453789.226291
    8326.9990  216189.590000  118777.602046  453947.182962
    8327.4990  218120.590000  119777.598214  453801.861783
    8327.9980  219103.590000  120294.599698  452904.248728
    8328.4980  220584.590000  121058.602852  451418.004473
    8328.9980  221779.590000  121656.603538  449028.944866
    8329.4970  222375.590000  121836.599563  445645.057137
    8329.9970  222753.590000  121777.594231  439991.048745
    8330.5030  222948.590000  121520.601341  431117.125793
    8331.0030  223126.590000  121112.598446  415566.927591
    8331.4970  223168.590000  120585.602486  394355.148255
    8331.9970  222696.590000  119757.595478  367529.894921
    8332.4970  222606.590000  119071.594074  335977.079907
    8332.9980  222517.590000  118381.594045  306862.067367
    8333.4970  222446.590000  117485.594709  273017.071951
    8333.9980  222247.590000  116464.596101  244816.079005
    8334.4980  221740.590000  115104.600568  219450.080973
    8334.9990  221911.590000  113900.602402  199663.102621
    8335.5000  221654.590000  112323.597557  184208.094935
    8335.9990  221480.590000  110284.595429  169649.077890
    8336.5000  221326.590000  108334.600821  158937.094757
    8337.0010  221386.590000  106264.604166  148878.099857
    8337.5020  220964.590000  104178.602968  140163.088494
    8338.0030  221139.590000  102467.597954  132275.084959
    8338.4970  220937.590000  100610.604380  123910.107531
    8338.9980  220980.590000  99189.599953  116830.103147
    8339.4990  220717.590000  97587.597548  108994.095500
    8340.0000  220800.590000  96432.596893  102672.097076
    8340.5020  220614.590000  95119.599551  95850.099487
    8341.0030  220803.590000  94107.596693  89626.096516
    8341.4980  220633.590000  93104.597158  83813.095132
    8341.9990  220888.590000  92341.601160  77793.101436
    8342.5010  221003.590000  91750.601771  72557.100555
    8343.0030  221186.590000  91221.602992  66569.102531
    8343.4980  221401.590000  90869.599093  61157.102354
    8343.9990  221003.590000  90333.596522  55457.099825
    8344.5010  221415.590000  90174.603821  50206.105024
    8345.0020  221246.590000  89852.601924  45588.102452
    8345.4980  221454.590000  89645.603414  40830.104192
    8346.0000  221349.590000  89322.597457  36913.100196
    8346.5020  221570.590000  89089.602190  33298.103035
    8346.9980  221643.590000  88788.598040  30412.090444
    8347.5000  221509.590000  88422.599220  28020.085275
    8348.0010  221328.590000  88012.603856  25930.088948
    8348.4980  221278.590000  87714.602959  24610.111520
    8349.0000  221289.590000  87430.597371  23611.108625
    8349.5020  221143.590000  87119.602770  23028.093315
    8349.9990  220748.590000  86709.604149  22671.092440
    8350.5010  220946.590000  86537.599700  22593.110126
    8350.9980  220923.590000  86296.599591  22636.104937
    8351.5000  220887.590000  86048.597992  22767.093584
    8352.0020  220818.590000  85830.601582  22904.092461
    8352.4990  220694.590000  85557.597153  23023.094021
    8353.0020  220619.590000  85328.601759  23076.105913
    8353.4990  220708.590000  85159.599246  23028.098268
    8354.0010  220562.590000  84906.598359  22807.098141
    8354.4980  220445.590000  84701.601303  22494.110223
    8355.0010  220586.590000  84599.598117  22041.091711
    8355.4980  220548.590000  84457.600012  21537.091471
    8356.0020  220546.590000  84365.602489  20975.094655
    8356.4980  220563.590000  84305.604309  20447.105729
    8357.0010  220463.590000  84238.600677  20018.107852
    8357.4980  220483.590000  84244.599842  19679.106130
    8358.0020  220237.590000  84176.603812  19488.099908
    8358.4990  220306.590000  84246.604615  19464.110198
    8359.0030  219941.590000  84171.603275  19519.102688
    8359.5000  220353.590000  84390.596829  19745.092578
    8359.9980  220108.590000  84400.600414  20007.106101
    8360.5010  220416.590000  84613.603087  20337.104930
    8360.9990  220260.590000  84682.599641  20669.106490
    8361.5030  220197.590000  84791.599860  20985.096171
    8362.0000  220071.590000  84891.604586  21321.100209
    8362.4980  220280.590000  85131.604112  21723.102874
    8363.0020  220182.590000  85237.600481  22082.107311
    8363.5000  220039.590000  85345.599081  22486.089750
    8363.9980  220054.590000  85497.603981  22865.091342
    8364.5020  220334.590000  85744.603802  23322.094071
    8365.0000  220064.590000  85763.601725  23688.097201
    8365.4980  220281.590000  85949.600387  24083.093564
    8366.0030  220089.590000  85971.598416  24405.096678
    8366.5010  220242.590000  86100.603497  24686.102184
    8367.0000  220340.590000  86225.597262  24943.096377
    8367.4980  220245.590000  86242.598860  25113.090446
    8368.0030  220005.590000  86202.601336  25226.104599
    8368.5010  220287.590000  86371.600162  25370.089971
    8368.9990  220033.590000  86326.603350  25413.100697
    8369.4980  220299.590000  86487.603602  25479.089412
    8369.9970  219889.590000  86390.598544  25423.091031
    8370.7060  220038.580000  86556.579175  25357.087953
    8371.4280  220355.550000  86799.501466  25220.089472
    8372.1610  220474.470000  86993.378440  24920.082534
    8372.9060  220343.360000  87111.199437  24482.056390
    8373.6640  220339.230000  87282.965107  23992.044910
    8374.4290  220613.060000  87592.695279  23396.012626
    8375.2110  220588.870000  87781.366568  22745.976037
    8376.0050  220847.640000  88089.985278  22100.933601
    8376.8120  221102.390000  88422.556170  21384.900682
    8377.6300  221376.110000  88745.081776  20697.853727
    8378.4610  221844.800000  89141.548444  20073.801126
    8379.3040  221954.450000  89402.967992  19428.749083
    8380.1590  222498.090000  89814.336995  18954.675272
    8381.0270  222440.690000  89959.656100  18588.615144
    8381.9070  222802.250000  90278.921593  18414.548043
    8382.7990  223288.800000  90624.137950  18463.459207
    8383.7040  223677.300000  90891.318281  18695.381003
    8384.6200  224173.780000  91182.432702  19147.291214
    8385.5560  224655.230000  91443.492747  19778.197921
    8386.4960  225359.660000  91761.508735  20632.116495
    8387.4500  225727.050000  91909.475069  21550.006669
    8388.4150  226297.410000  92094.397205  22495.900837
    8389.3940  226751.730000  92188.253357  23477.786493
    8390.3850  227486.030000  92372.067200  24440.672002
    8391.3870  228284.300000  92554.835215  25369.541020
    8392.4020  228858.550000  92617.548017  26152.417329
    8393.4300  229560.750000  92730.209157  26801.297495
    8394.4690  230651.940000  92981.832163  27350.152945
    8395.5210  231167.090000  93010.387678  27646.003603
    8396.5850  232193.220000  93243.902707  27852.860439
    8397.6620  232864.310000  93337.356918  27917.714716
    8398.7520  233786.370000  93538.774386  28002.563223
    8399.8540  234411.410000  93638.135774  28113.411329
    8400.9680  235829.410000  94071.450447  28382.240205
    8402.0940  236462.370000  94213.697830  28586.071343
    8403.2330  237486.330000  94528.914753  28797.879729
    8404.3840  238408.230000  94824.067764  28895.713329
    8405.5480  239747.120000  95319.175385  28916.518354
    8406.7240  240418.970000  95577.229802  28707.333412
    8407.9130  241629.800000  96068.242935  28491.129774
    8409.1080  242983.590000  96659.201957  28289.944124
    8410.3210  244229.360000  97237.105629  28127.714847
    8411.5480  245209.090000  97718.966984  27960.524473
    8412.7860  246310.800000  98275.774589  27777.311465
    8414.0310  247762.480000  98977.519174  27545.074768
    8415.2950  248879.120000  99555.235097  27168.864136
    8416.5710  250064.730000  100188.879990  26736.621151
    8417.8540  251332.330000  100879.495161  26333.389252
    8419.1560  252915.890000  101711.043166  25980.152545
    8420.4630  254299.410000  102524.546948  25630.889683
    8421.7900  255638.910000  103333.005990  25248.653838
    8423.1230  256919.370000  104144.400271  24814.406711
    8424.4690  258770.810000  105169.745272  24381.134730
    8425.8340  260110.220000  106025.058197  23832.863898
    8427.2050  261540.610000  106911.305250  23332.601015
    8428.5880  263419.940000  107995.513954  22966.317563
    8429.9840  264744.280000  108836.654859  22706.044781
    8431.3950  266345.560000  109786.751711  22702.768183
    8432.8150  267757.810000  110651.804872  22952.465913
    8434.2500  269774.060000  111753.806311  23532.167004
    8435.6970  271163.250000  112576.753014  24319.882801
    8437.1560  272577.410000  113388.644223  25313.560674
    8438.6240  274739.560000  114524.490893  26539.248012
    8440.1090  276436.690000  115438.292773  27805.952750
    8441.6060  278437.750000  116488.041018  29186.626726
    8443.1110  280130.810000  117438.732569  30608.286491
    8444.6350  281884.810000  118426.381258  31960.971324
    8446.1660  283628.810000  119390.970750  33131.635335
    8447.7090  285699.780000  120496.515946  34282.288111
    8449.2650  287510.720000  121458.014878  35523.968814
    8450.8330  289510.620000  122455.461010  37095.600597
    8452.4150  291689.500000  123462.847437  38883.238868
    8454.0100  293599.340000  124324.197383  40725.875365
    8455.6170  295576.160000  125171.479888  42506.526817
    8457.2380  297136.940000  125813.733796  43824.170803
    8458.8650  299421.690000  126748.919053  44737.770133
    8460.5110  302103.410000  127804.068455  45149.417394
    8462.1640  303999.090000  128568.149233  44940.037805
    8463.8300  306320.750000  129465.191770  44367.625833
    8465.5160  308184.410000  130172.180248  43407.230889
    8467.2080  310398.000000  131011.112126  42377.821391
    8468.9060  312583.590000  131853.020535  41323.437023
    8470.6250  315116.120000  132851.837808  40417.000698
    8472.3550  317146.660000  133687.637683  39772.591399
    8474.0940  319334.120000  134622.377166  39530.188774
    8475.8510  321888.590000  135747.058746  39769.778588
    8477.6140  324507.000000  136939.703370  40369.344909
    8479.3980  326516.410000  137889.288756  41024.896240
    8481.1880  329366.780000  139235.808895  41631.452971
    8482.9920  331573.120000  140354.288551  41640.025596
    8484.8030  333822.410000  141511.734784  40908.572799
    8486.6330  336611.690000  142932.131228  39478.132492
    8488.4760  339324.940000  144337.451803  37670.638574
    8490.3250  341161.160000  145394.738143  35776.182389
    8492.1890  344268.340000  147003.972677  34512.742768
    8494.0650  346786.500000  148402.149750  33694.237100
    8495.9540  349570.660000  149918.275523  33418.756552
    8497.8580  352550.750000  151567.380753  33486.296101
    8499.7740  354789.810000  152933.399558  33734.785970
    8501.6970  357487.840000  154498.385674  34319.292087
    8503.6340  360284.870000  156145.306258  35310.805577
    8505.5900  362723.840000  157687.192034  36790.301836
    8507.5470  365441.780000  159358.021402  38931.799240
    8509.5240  368566.720000  161199.794230  41653.298185
    8511.5140  371618.590000  163054.521498  45087.751876
    8513.5110  374224.470000  164677.201722  49060.253430
    8515.5280  377078.280000  166350.848834  53631.742583
    8517.5530  380281.090000  168143.400513  58670.156465
    8519.5840  382852.870000  169624.939916  63275.642720
    8521.6350  385761.620000  171215.417292  67119.097361
    8523.6990  388832.310000  172866.837208  69519.554380
    8525.7710  391866.000000  174472.222330  70183.998582
    8527.8560  395139.660000  176175.555448  69344.447040
    8529.9550  398312.280000  177834.816233  67375.882047
    8532.0670  401283.870000  179390.049401  64963.299158
    8534.1880  404131.440000  180899.218366  62580.771825
    8536.3270  407374.970000  182569.343186  60591.163373
    8538.4740  410493.470000  184167.399028  59110.591487
    8540.6350  413854.970000  185836.433761  58251.969233
    8542.8030  416839.410000  187333.404236  57961.380755
    8544.9900  420068.810000  188901.333012  58302.783182
    8547.1870  423168.190000  190367.194994  59050.193074
    8549.3960  426625.560000  191974.014141  60079.580186
    8551.6180  429629.870000  193384.796950  61157.956649
    8553.8540  433011.190000  194982.511636  62398.352365
    8556.0990  436763.440000  196805.183126  63888.752028
    8558.3570  439986.690000  198442.795845  65544.144434
    8560.6280  443110.870000  200056.376557  67207.457066
    8562.9070  446500.060000  201862.896083  68436.871383
    8565.2070  450153.220000  203827.350350  68693.206900
    8567.5140  453885.340000  205869.754903  67816.580221
    8569.8350  457476.410000  207910.151107  66106.892850
    8572.1640  460555.470000  209734.449527  64225.235158
    8574.5120  464140.500000  211854.709699  62826.609891
    8576.8690  467588.500000  213933.931410  61943.906126
    8579.2390  470870.470000  215981.087413  61544.214138
    8581.6160  474309.410000  218094.220261  61672.564505
    8584.0090  478102.310000  220400.279901  62416.917177
    8586.4150  481963.190000  222767.302887  63854.224415
    8588.8350  485562.060000  225005.243538  66067.484136
    8591.2700  489204.870000  227254.164561  69100.782771
    8593.7110  493180.660000  229668.038900  72923.136168
    8596.1680  497179.410000  232096.851258  77256.398967
    8598.6310  500417.160000  234162.605791  81604.692837
    8601.1090  504115.840000  236448.300839  85833.947172
    8603.6020  507945.530000  238776.965484  89531.258154
    8606.1080  511742.160000  241074.569934  92474.525302
    8608.6290  516118.780000  243675.137083  94646.796638
    8611.1570  519553.370000  245792.660897  95838.064463
    8613.7000  523493.910000  248133.100313  96700.318583
    8616.2510  526962.440000  250256.520714  97467.576566
    8618.8160  529905.940000  252135.872576  98263.821637
    8621.3960  531156.370000  253182.193002  98800.064738
    8623.9830  538000.810000  256954.433016  100416.302115
    8626.5910  539892.250000  258313.634082  101127.539001
    8629.2070  544742.620000  261076.802434  102235.770992
    8631.8310  551942.940000  265002.900542  103491.985132
    8634.4700  556234.250000  267496.964464  103808.205480
    8637.1240  559925.560000  269701.973180  103715.424561
    8639.7910  563981.810000  272085.947327  103580.635798
    8642.4670  567638.000000  274272.816477  103435.837362
    8645.1580  572161.250000  276891.700620  103650.043363
    8647.8560  576220.370000  279272.462764  103979.230694
    8650.5690  580788.500000  281936.244781  104600.419594
    8653.2970  584628.620000  284274.922825  105148.591618
    8656.0320  589453.690000  287107.600115  105805.781003
    8658.7830  593019.750000  289335.178614  106109.948196
    8661.5490  597190.750000  291895.737922  106367.138083
    8664.3220  600821.750000  294181.258103  106365.268689
    8667.1110  606015.690000  297277.687527  106673.490319
    8669.9140  610196.620000  299926.076642  107240.613386
    8672.7250  614168.560000  302494.446359  108496.717401
    8675.5520  618341.370000  305171.734962  110562.910373
    8678.3870  623212.250000  308250.002753  113429.040886
    8681.2350  627828.060000  311194.195199  116765.171787
    8684.0990  632237.810000  314089.351710  120501.307683
    8686.9730  635813.560000  316621.443494  124216.433519
    8689.8540  640242.310000  319611.473904  127894.552278
    8692.7560  645186.000000  322877.484824  131065.676817
    8695.6670  649501.620000  325905.391894  133261.775461
    8698.5870  654098.250000  329089.308894  134836.868939
    8701.5210  658959.870000  332360.139111  136213.980781
    8704.4710  663956.440000  335722.942834  137989.079079
    8707.4300  667739.000000  338439.680028  140359.161760
    8710.4030  673201.500000  341966.367122  144094.248720
    8713.3860  676835.000000  344530.017747  148124.319962
    8716.3820  681557.440000  347648.611386  152280.396041
    8719.3950  685293.870000  350295.139047  155178.466844
    8722.4160  691119.250000  353977.653295  157425.540044
    8725.4520  696193.620000  357318.096371  159173.612859
    8728.4980  700559.940000  360284.511690  160817.668521
    8731.5510  705426.250000  363503.828789  162552.711891
