# XDI/1.0
# Column.1: energy eV
# Column.2: i0
# Column.3: itrans
# Column.4: irefer
# Beamline.name: SSRL 4-1
# Detector.I0: N2 15cm
# Detector.I1: N2 30cm
# Detector.I2: N2 15cm
# Element.edge: K
# Element.symbol: Ni
# Mono.d_spacing: 3.13550
# Mono.name: Si(111)
# Mono.notes: unfocused, detuned 25%,counter clockwise
# Sample.formula: NiS
# Sample.name: NiS   nickel sulfide
# Sample.prep: powder, mixed 1:150 with B(OH)3 by wt
# Sample.reference: none
# Sample.temperature: room temperature
# Scan.start_time: 1997-01-17 13:11:19
# ///
#    Note: mono d_spacing is nominal!
#     exafs to K17
#     507  E XMU XMUR I0
#-------------
#   energy   i0   itrans  irefer
    8110.0000  235471.590000  111447.604899  406518.959703
    8120.0030  235479.590000  112341.601523  410268.261891
    8130.0020  234916.590000  112976.599700  413330.995956
    8139.9990  234900.590000  113878.603949  416803.965008
    8149.9980  234243.590000  114483.597198  419698.063709
    8160.0000  234203.590000  115376.602224  422932.071984
    8169.9980  233672.590000  116056.605153  425983.259073
    8179.9990  233368.590000  116809.597216  429016.866910
    8190.0020  232897.590000  117513.595003  431769.995678
    8200.0010  232195.590000  118090.594139  434502.229916
    8209.9970  232057.590000  118957.605534  437508.954764
    8220.0010  231615.590000  119656.598091  440335.069093
    8230.0010  231054.590000  120305.603701  443101.207335
    8240.0020  230816.590000  121088.600414  445953.868345
    8250.0010  230750.590000  122002.596862  448975.055383
    8260.0000  229796.590000  122434.602013  451437.992294
    8270.0000  229466.590000  123174.597604  454146.049645
    8280.0020  227947.590000  123308.597261  456596.986456
    8290.0000  227817.590000  124085.601845  458880.884225
    8299.9990  226014.590000  123876.605686  462576.965366
    8310.0000  227592.590000  125718.596052  463810.027364
    8310.4970  227934.590000  125945.604300  464604.312202
    8311.0000  227873.590000  125954.602622  465114.934204
    8311.4980  227819.590000  125963.595903  465409.165182
    8312.0010  227372.590000  125770.603131  465592.895526
    8312.4990  227621.590000  125938.596293  466002.247537
    8313.0030  227020.590000  125637.605770  466161.256480
    8313.5000  227181.590000  125763.599926  466538.223472
    8313.9980  226963.590000  125672.599450  466766.021804
    8314.5020  226751.590000  125595.597428  467073.298333
    8315.0000  226740.590000  125627.601705  467386.243022
    8315.4980  226866.590000  125728.602501  467717.104443
    8316.0020  226836.590000  125753.594166  467780.135884
    8316.5000  227246.590000  126014.594227  467916.905332
    8316.9980  227016.590000  125917.596694  468072.265993
    8317.5030  227007.590000  125953.595955  468141.945858
    8318.0010  227074.590000  126017.596734  468296.926850
    8318.4990  226920.590000  125955.596044  468329.183633
    8318.9980  227014.590000  126038.597391  468404.944841
    8319.5030  226630.590000  125854.595306  468260.251859
    8320.0010  226590.590000  125861.603808  468282.113446
    8320.4990  225881.590000  125474.597022  467790.863846
    8320.9980  225378.590000  125213.603937  467317.131858
    8321.5030  224394.590000  124689.601942  466650.911187
    8322.0020  223217.590000  124057.595257  465920.927218
    8322.5000  222107.590000  123486.594561  465346.181112
    8323.0000  220651.590000  122737.599807  464652.930867
    8323.4990  219530.590000  122164.596244  464144.202406
    8323.9980  218026.590000  121365.593950  463921.996837
    8324.5030  217126.590000  120866.598722  463550.089675
    8325.0020  216914.590000  120717.605800  463254.223204
    8325.5010  217161.590000  120781.596954  462910.129642
    8326.0000  217546.590000  120920.600318  462699.184989
    8326.5000  218695.590000  121462.595920  462720.112598
    8326.9990  220242.590000  122259.596061  462703.111553
    8327.4990  221656.590000  122987.594469  462675.290812
    8327.9980  223227.590000  123824.598251  461988.978150
    8328.4980  224308.590000  124392.605562  460522.050199
    8328.9980  225836.590000  125172.599971  458557.908974
    8329.4970  226671.590000  125536.597531  455961.934864
    8329.9970  227082.590000  125536.604317  451560.961605
    8330.5030  227421.590000  125424.604820  445325.207950
    8331.0030  227604.590000  125049.601302  433170.090254
    8331.4970  227553.590000  124466.595553  414906.158718
    8331.9970  227188.590000  123699.602443  390371.974571
    8332.4970  227302.590000  123118.600859  359890.970345
    8332.9980  226916.590000  122288.597565  329910.070941
    8333.4970  227034.590000  121519.602198  294989.093576
    8333.9980  226542.590000  120346.593943  263619.074770
    8334.4980  226451.590000  119228.603894  235981.093941
    8334.9990  226420.590000  117971.596448  213623.087208
    8335.5000  226118.590000  116455.601360  196378.102668
    8335.9990  226317.590000  114662.597172  180502.093907
    8336.5000  225860.590000  112552.598042  168373.083196
    8337.0010  225694.590000  110301.597972  157207.095173
    8337.5020  225618.590000  108286.600297  148124.097451
    8338.0030  225601.590000  106355.596904  139577.090329
    8338.4970  225364.590000  104339.602797  130732.099959
    8338.9980  225252.590000  102740.603057  123203.097738
    8339.4990  225034.590000  101059.598172  115047.101610
    8340.0000  225584.590000  100040.600696  108644.100884
    8340.5020  225217.590000  98583.598264  101417.098537
    8341.0030  225034.590000  97305.598271  94627.098045
    8341.4980  225337.590000  96442.596626  88793.096755
    8341.9990  225190.590000  95422.596435  82381.097416
    8342.5010  225196.590000  94716.597995  76944.097682
    8343.0030  225329.590000  94109.601345  70770.098563
    8343.4980  225675.590000  93745.599545  65161.097423
    8343.9990  225415.590000  93216.604448  59299.102154
    8344.5010  225498.590000  92910.596809  53693.100242
    8345.0020  225965.590000  92826.599479  49025.100941
    8345.4980  225884.590000  92498.599616  43859.099218
    8346.0000  225965.590000  92250.604066  39665.100919
    8346.5020  225844.590000  91876.603263  35664.100973
    8346.9980  225928.590000  91585.601997  32476.088364
    8347.5000  225866.590000  91224.601613  29797.086350
    8348.0010  225965.590000  90910.602272  27458.111660
    8348.4980  225902.590000  90588.601027  25899.104392
    8349.0000  225713.590000  90208.602569  24659.094919
    8349.5020  225380.590000  89813.597559  23916.088329
    8349.9990  225464.590000  89584.598887  23495.088934
    8350.5010  225460.590000  89312.600101  23297.092712
    8350.9980  225141.590000  88953.600685  23257.110033
    8351.5000  225468.590000  88831.601441  23409.091178
    8352.0020  225365.590000  88593.600689  23533.092640
    8352.4990  225166.590000  88293.600304  23670.099526
    8353.0020  225054.590000  88031.604760  23753.096359
    8353.4990  225194.590000  87879.597982  23764.091311
    8354.0010  225110.590000  87637.596755  23606.098568
    8354.4980  224879.590000  87378.600173  23329.097552
    8355.0010  225063.590000  87267.602143  22924.089124
    8355.4980  224909.590000  87080.597620  22419.096079
    8356.0020  224887.590000  86950.603136  21845.089891
    8356.4980  224715.590000  86821.601697  21282.102434
    8357.0010  224790.590000  86808.596755  20821.095047
    8357.4980  224976.590000  86862.599345  20416.094836
    8358.0020  224673.590000  86766.598508  20144.105968
    8358.4990  224390.590000  86684.599541  20013.103594
    8359.0030  224946.590000  86944.596699  20100.106152
    8359.5000  224709.590000  86924.598365  20228.106687
    8359.9980  224686.590000  87000.598491  20485.104204
    8360.5010  225085.590000  87255.598906  20815.100937
    8360.9990  224517.590000  87166.602265  21108.108505
    8361.5030  224993.590000  87472.601001  21482.091035
    8362.0000  224921.590000  87594.600033  21838.104407
    8362.4980  224848.590000  87736.599844  22226.097074
    8363.0020  224706.590000  87845.598133  22581.109790
    8363.5000  224735.590000  88019.603403  23006.103622
    8363.9980  224608.590000  88106.603730  23372.111313
    8364.5020  224629.590000  88273.599717  23825.110296
    8365.0000  224697.590000  88437.603108  24247.105604
    8365.4980  224531.590000  88490.598079  24627.096241
    8366.0030  224715.590000  88665.597182  25023.088988
    8366.5010  224655.590000  88721.603657  25303.112664
    8367.0000  224516.590000  88759.600930  25567.105965
    8367.4980  224504.590000  88813.596535  25769.091050
    8368.0030  224744.590000  88977.604379  25971.108324
    8368.5010  224509.590000  88932.603909  26066.105315
    8368.9990  224711.590000  89065.598296  26176.109869
    8369.4980  224570.590000  89079.603367  26217.087421
    8369.9970  224531.590000  89111.599392  26229.100749
    8370.7060  224452.580000  89186.578224  26163.087934
    8371.4280  224710.550000  89406.503854  26052.101314
    8372.1610  224635.470000  89532.371716  25749.089185
    8372.9060  224864.360000  89781.197909  25383.074052
    8373.6640  224788.230000  89928.963030  24893.035337
    8374.4290  224983.060000  90212.690536  24291.004837
    8375.2110  225013.870000  90426.362436  23642.970605
    8376.0050  225248.640000  90734.980810  22993.945881
    8376.8120  225631.390000  91118.554017  22260.892737
    8377.6300  225926.110000  91467.077511  21548.842416
    8378.4610  225955.800000  91691.548003  20839.791352
    8379.3040  226299.450000  92048.970386  20169.745260
    8380.1590  226908.090000  92507.335643  19653.686829
    8381.0270  227316.690000  92851.659017  19275.621357
    8381.9070  227450.250000  93081.926285  19019.543070
    8382.7990  227897.800000  93427.140156  19008.474059
    8383.7040  228521.300000  93805.315478  19223.385307
    8384.6200  228905.780000  94071.429109  19625.296618
    8385.5560  229311.230000  94310.493738  20225.202268
    8386.4960  230027.660000  94634.505635  21072.105730
    8387.4500  230689.050000  94916.475519  22024.011716
    8388.4150  231028.410000  95019.391324  22978.890496
    8389.3940  231943.730000  95321.253172  24047.782755
    8390.3850  232194.030000  95296.068735  24998.668372
    8391.3870  232855.300000  95416.835020  25957.563477
    8392.4020  233908.550000  95678.549196  26839.431398
    8393.4300  234555.750000  95777.213282  27531.307165
    8394.4690  235216.940000  95858.825100  28085.166018
    8395.5210  236392.090000  96139.390693  28507.012930
    8396.5850  236829.220000  96131.898451  28673.868153
    8397.6620  237917.310000  96400.354243  28805.717056
    8398.7520  238480.370000  96447.768318  28843.555858
    8399.8540  239639.410000  96755.137878  29004.396884
    8400.9680  240586.410000  96988.442135  29209.231838
    8402.0940  241472.370000  97223.704638  29449.076654
    8403.2330  242463.330000  97527.918680  29673.894388
    8404.3840  243726.230000  97960.064173  29841.704266
    8405.5480  244346.120000  98157.177384  29792.510747
    8406.7240  245736.970000  98705.230234  29691.325613
    8407.9130  246845.800000  99158.239233  29460.133723
    8409.1080  248411.590000  99829.198192  29266.944573
    8410.3210  249259.360000  100247.112301  29035.733491
    8411.5480  250372.090000  100786.968986  28872.514042
    8412.7860  251938.800000  101544.771614  28757.304395
    8414.0310  253058.480000  102122.524018  28481.088575
    8415.2950  254568.120000  102861.236581  28152.857586
    8416.5710  255623.730000  103446.881482  27696.616524
    8417.8540  256694.330000  104063.490619  27240.400930
    8419.1560  258454.890000  105001.041793  26902.151692
    8420.4630  260006.410000  105882.552501  26540.914469
    8421.7900  261448.910000  106735.999530  26163.661740
    8423.1230  262616.370000  107506.391120  25707.384830
    8424.4690  264378.810000  108520.745888  25252.126274
    8425.8340  265711.220000  109377.060127  24688.861239
    8427.2050  267612.590000  110483.299632  24211.588326
    8428.5880  268807.940000  111289.503639  23735.336918
    8429.9840  270989.280000  112505.652283  23518.055914
    8431.3950  272135.560000  113290.761494  23425.768268
    8432.8150  273714.810000  114243.807264  23657.467720
    8434.2500  275674.060000  115337.801368  24196.166846
    8435.6970  277274.250000  116273.745804  24997.861685
    8437.1560  279394.410000  117388.651734  26045.558105
    8438.6240  280853.560000  118229.493365  27216.260160
    8440.1090  282747.690000  119250.288041  28523.934596
    8441.6060  284350.750000  120157.034888  29881.618078
    8443.1110  286548.810000  121333.734846  31413.316273
    8444.6350  288675.810000  122490.379690  32864.974761
    8446.1660  290731.810000  123619.973159  34138.648415
    8447.7090  292840.780000  124738.512765  35317.290093
    8449.2650  294584.720000  125697.010908  36549.968916
    8450.8330  296707.620000  126769.453435  38137.616679
    8452.4150  298777.500000  127763.851423  39940.252471
    8454.0100  300886.340000  128714.192642  41850.903490
    8455.6170  302719.160000  129511.491029  43712.522233
    8457.2380  305282.940000  130584.733997  45309.164493
    8458.8650  307430.690000  131462.923786  46305.783341
    8460.5110  309156.410000  132145.069445  46675.403303
    8462.1640  311336.090000  133016.157248  46565.997337
    8463.8300  313233.750000  133751.194547  45966.612463
    8465.5160  315443.410000  134598.194030  45033.245226
    8467.2080  318028.000000  135606.122982  44038.820509
    8468.9060  320409.590000  136535.021036  42959.428459
    8470.6250  322819.120000  137481.844222  41959.038407
    8472.3550  325664.660000  138664.646314  41342.598192
    8474.0940  327210.120000  139339.379067  40935.208381
    8475.8510  330145.590000  140627.062425  41160.762620
    8477.6140  332472.000000  141701.700315  41697.332003
    8479.3980  334895.410000  142854.277771  42424.883883
    8481.1880  337421.780000  144068.808246  43034.452701
    8482.9920  339825.120000  145281.295539  43160.029865
    8484.8030  342390.410000  146582.738316  42542.562088
    8486.6330  344883.690000  147884.125272  41088.120046
    8488.4760  347501.940000  149267.447666  39208.660273
    8490.3250  350235.160000  150720.739096  37290.205856
    8492.1890  352606.340000  152031.973472  35825.712094
    8494.0650  355472.500000  153593.160298  34936.261121
    8495.9540  358148.660000  155092.288840  34585.770893
    8497.8580  361167.750000  156778.382522  34625.286258
    8499.7740  363649.810000  158264.398730  34882.806037
    8501.6970  366694.840000  160020.383426  35489.298614
    8503.6340  369265.870000  161596.308034  36439.826076
    8505.5900  372081.840000  163309.182634  37951.317884
    8507.5470  374989.780000  165098.022335  40119.815816
    8509.5240  377872.720000  166896.793660  42852.270009
    8511.5140  380900.590000  168746.522553  46324.766072
    8513.5110  383868.470000  170553.199378  50419.261156
    8515.5280  386650.280000  172232.845672  55076.730623
    8517.5530  389375.090000  173859.398972  60220.204605
    8519.5840  393209.870000  175905.934604  65233.646712
    8521.6350  395341.620000  177183.417286  69183.102680
    8523.6990  398619.310000  178946.835109  71829.549992
    8525.7710  401454.000000  180483.210434  72630.994809
    8527.8560  405161.660000  182412.544137  71954.440504
    8529.9550  408147.280000  184007.807663  69935.877720
    8532.0670  411088.870000  185583.036839  67430.296496
    8534.1880  414390.440000  187297.211448  64990.734994
    8536.3270  417801.970000  189067.343099  62912.147199
    8538.4740  420878.470000  190664.401458  61316.551961
    8540.6350  424319.970000  192415.446227  60378.967063
    8542.8030  427635.410000  194086.412813  60052.398339
    8544.9900  430968.810000  195717.329316  60369.826623
    8547.1870  434153.190000  197215.205101  61116.173966
    8549.3960  437619.560000  198858.009205  62154.613597
    8551.6180  440773.870000  200353.794748  63278.952980
    8553.8540  444239.190000  202007.521851  64548.374413
    8556.0990  447830.440000  203783.198981  66041.720997
    8558.3570  451166.690000  205469.801563  67753.090307
    8560.6280  454462.870000  207192.376367  69495.480113
    8562.9070  458160.060000  209152.886532  70851.809030
    8565.2070  462122.220000  211274.365990  71223.199538
    8567.5140  464883.340000  212913.758147  70209.539520
    8569.8350  468457.410000  214964.132880  68468.870067
    8572.1640  472432.470000  217227.461903  66621.278005
    8574.5120  475899.500000  219299.724134  65099.599524
    8576.8690  479509.500000  221494.931462  64173.907730
    8579.2390  483182.470000  223736.085383  63763.260292
    8581.6160  486080.410000  225644.231696  63770.554965
    8584.0090  490516.310000  228285.269806  64580.856653
    8586.4150  494467.190000  230719.295132  66021.193163
    8588.8350  498142.060000  233024.243472  68259.491732
    8591.2700  501008.870000  234946.165640  71223.826587
    8593.7110  505660.660000  237704.026086  75236.110754
    8596.1680  509266.410000  239954.849473  79625.371416
    8598.6310  512819.160000  242210.617623  84182.719484
    8601.1090  516642.840000  244601.316147  88597.939759
    8603.6020  520646.530000  247052.969785  92476.260303
    8606.1080  524379.190000  249368.586160  95517.537336
    8608.6290  528927.750000  252057.149135  97802.803677
    8611.1570  532452.370000  254258.647862  99075.060287
    8613.7000  535985.940000  256454.107220  99877.319653
    8616.2510  540070.440000  258908.515034  100757.574133
    8618.8160  542561.940000  260583.866577  101470.818432
    8621.3960  543751.370000  261640.180230  102012.055955
    8623.9830  550238.810000  265274.432373  103573.300972
    8626.5910  552723.250000  266939.655682  104417.535320
    8629.2070  557322.620000  269618.819617  105509.772853
    8631.8310  565992.940000  274275.919350  107070.993449
    8634.4700  569438.250000  276404.963268  107227.210805
    8637.1240  573288.560000  278708.960510  107157.421803
    8639.7910  577679.810000  281291.937423  107067.636678
    8642.4670  581964.000000  283811.813541  107016.838383
    8645.1580  586344.250000  286382.684591  107164.032480
    8647.8560  590413.370000  288800.465452  107481.229035
    8650.5690  594584.500000  291290.264426  108009.430448
    8653.2970  598777.620000  293848.925698  108619.600767
    8656.0320  602999.690000  296385.592112  109171.777557
    8658.7830  607027.750000  298892.180090  109573.976613
    8661.5490  611166.750000  301468.741807  109848.081636
    8664.3220  615877.750000  304324.262545  110024.248900
    8667.1110  620440.690000  307156.692337  110199.462132
    8669.9140  625206.620000  310113.105412  110813.663900
    8672.7250  629881.560000  313076.447431  112165.717886
    8675.5520  633508.370000  315515.753310  114124.917039
    8678.3870  638576.250000  318723.988635  117064.081368
    8681.2350  643083.060000  321660.194465  120443.178215
    8684.0990  647413.810000  324552.357950  124260.314143
    8686.9730  650433.560000  326853.433858  127987.429993
    8689.8540  655691.310000  330278.459122  131953.543066
    8692.7560  660865.000000  333730.467276  135302.671905
    8695.6670  665165.620000  336778.405046  137585.777956
    8698.5870  670659.250000  340444.318588  139389.877908
    8701.5210  674991.870000  343517.152995  140683.986752
    8704.4710  680272.440000  347061.939838  142518.079450
    8707.4300  684439.000000  350010.699709  144973.174900
    8710.4030  688770.500000  352993.387368  148515.261512
    8713.3860  694035.000000  356453.034810  153035.327206
    8716.3820  698245.440000  359369.631926  157209.415650
    8719.3950  702762.870000  362431.149335  160402.458623
    8722.4160  708179.250000  365935.665129  162638.547679
    8725.4520  713090.620000  369256.088134  164362.607608
    8728.4980  717217.940000  372144.513268  165980.656650
