# XDI/1.0 EXAFS Data Collector 1.1 AD.RGN
# Column.1: energy eV
# Column.2: mutrans
# Column.3: i0
# Beamline.name: SSRL 4-3 (?)
# Detector.I0: N2 15cm
# Detector.I1: Ar 30cm
# Element.edge: K
# Element.symbol: Sr
# Mono.d_spacing: 1.92009
# Mono.name: Si(220)
# Mono.notes: (?) unfocussed, detuned 50%, clockwise at E=16800eV
# Sample.formula: SrCO3
# Sample.name: strontianite
# Sample.prep: powder mixed with B2O3 (1:10)
# Sample.reference: none
# Sample.temperature: 12K
# Scan.start_time: 1997-03-17 12:43:45
# ///
#    Note: mono d_spacing is nominal!
#-------------
#   energy   mutrans      i0
  15700.043 -0.040479829   52989.199
  15709.991 -0.044980344   52448.199
  15719.954 -0.046017646   51876.199
  15729.931 -0.047211669   51361.199
  15739.919 -0.042241948   50270.199
  15749.921 -0.04455405   50920.199
  15759.935 -0.045058511   50489.199
  15769.963 -0.04654526   50057.199
  15780.002 -0.046094739   49625.199
  15790.057 -0.045507295   49271.199
  15799.958 -0.049499106   48734.199
  15810.037 -0.04967742   48378.199
  15819.965 -0.048566324   48126.199
  15830.071 -0.049618011   47769.199
  15840.023 -0.049974181   47381.199
  15849.989 -0.048432045   46973.199
  15859.968 -0.049592588   46673.199
  15869.959 -0.050667046   46178.199
  15879.964 -0.051147899   45809.199
  15889.980 -0.052943533   45374.199
  15900.011 -0.052465072   44982.199
  15910.055 -0.05577808   44593.199
  15919.941 -0.05501429   44204.199
  15930.011 -0.055593661   43818.199
  15939.925 -0.057526582   43571.199
  15950.020 -0.058495417   43094.199
  15959.959 -0.059169231   42720.199
  15970.079 -0.058811813   42228.199
  15980.045 -0.059828529   41927.199
  15990.021 -0.061287276   41690.199
  16000.012 -0.061472891   41229.199
  16010.014 -0.062432335   40762.199
  16020.030 -0.063050417   40442.199
  16030.059 -0.06384885   40087.199
  16039.929 -0.064335558   39789.199
  16049.982 -0.064423861   39357.199
  16060.049 -0.064482118   39005.199
  16069.959 -0.06348715   38553.199
  16080.051 -0.060695336   38098.199
  16089.984 -0.050200592   37780.199
  16099.931 0.081307167   37444.199
  16110.063  0.57489899   37110.199
  16120.035  0.33377309   36584.199
  16121.238  0.32667153   36479.199
  16122.443   0.3211093   36500.199
  16123.819  0.31701244   36451.199
  16125.024  0.31467938   36414.199
  16126.229  0.31344917   36465.199
  16127.435   0.3131925   36364.199
  16128.813  0.31579595   36382.199
  16130.019  0.32110428   36333.199
  16131.225  0.32680474   36140.199
  16132.431  0.33462581   35971.199
  16133.809  0.34222831   35947.199
  16135.016  0.34809365   35980.199
  16136.221  0.35506152   35972.199
  16137.429  0.36159978   35895.199
  16138.808  0.37290056   36120.199
  16140.016  0.38200817   36049.199
  16141.223  0.39035892   35911.199
  16142.431  0.39881969   35860.199
  16143.812  0.40715124   35852.199
  16145.020  0.41218499   35820.199
  16146.228  0.41543718   35767.199
  16147.436  0.41631765   35659.199
  16148.817   0.4151091   35519.199
  16150.024  0.41265647   35503.199
  16151.234   0.4092698   35392.199
  16152.443  0.40561709   35536.199
  16153.826  0.39901485   35326.199
  16155.034  0.39279596   35224.199
  16155.727  0.38979298   35300.195
  16156.418   0.3854538   35178.176
  16157.108   0.3812815   35153.145
  16157.800  0.37685074   35101.105
  16158.493  0.37306768   35131.051
  16159.356  0.36810733   35128.984
  16160.047  0.36476183   34999.906
  16160.913  0.36102671   35052.816
  16161.777  0.35684975   34970.711
  16162.642  0.35435654   35001.598
  16163.508  0.35109461   34847.473
  16164.372   0.3482762   34845.332
  16165.237  0.34621736   35077.184
  16166.275  0.34326665    35010.02
  16167.140  0.34067259   34970.844
  16168.179  0.33750502   34796.656
  16169.217  0.33579897   34914.461
  16170.084  0.33453742    34973.25
  16171.123   0.3339823   34949.027
  16172.160  0.33418006   34907.789
  16173.373   0.3351652   34906.543
  16174.412  0.33668961   35047.285
  16175.452  0.33871129   35102.012
  16176.665  0.34216852    35284.73
  16177.705  0.34423415   35173.434
  16178.917  0.34743918   35199.129
  16180.132  0.35030731   35378.809
  16181.345  0.35285119   35523.477
  16182.559   0.3549784   35685.133
  16183.772  0.35697101   35956.777
  16185.160   0.3576197    36053.41
  16186.374  0.35769074   36205.031
  16187.762  0.35792753   36455.641
  16188.977  0.35865481   36601.238
  16190.365  0.35964334    36783.82
  16191.755  0.35942788   36833.395
  16193.143  0.36037939   37034.953
  16194.532  0.36027803     37038.5
  16195.922  0.36056929   37144.039
  16197.485  0.36078277   37107.563
  16198.874   0.3612093   37142.074
  16200.438  0.36182739   37242.574
  16202.004  0.36270269   37357.063
  16203.394  0.36322172   37488.539
  16204.958  0.36286373   37590.004
  16206.524  0.36238731   37810.453
  16208.090  0.36065603   37787.895
  16209.829  0.35875261    37956.32
  16211.396  0.35606534   37922.738
  16212.961  0.35340263   38139.141
  16214.703  0.34982825   38137.531
  16216.444   0.3463397    38405.91
  16218.186  0.34284462   38484.281
  16219.927  0.33905061   38534.637
  16221.670  0.33605486   38765.977
  16223.413  0.33374885   38930.309
  16225.156   0.3320639   39141.629
  16226.900   0.3313929   39288.938
  16228.818  0.33085753    39391.23
  16230.563  0.33088768   39621.516
  16232.480  0.33159071   39882.785
  16234.401  0.33126687   39858.047
  16236.321  0.33218764   39976.293
  16238.242  0.33272815   40164.527
  16240.163  0.33363144    40230.75
  16242.084  0.33461056   40471.961
  16244.181  0.33556103    40764.16
  16246.104   0.3366413   40926.348
  16248.202  0.33852598    41047.52
  16250.300  0.34006265   41109.684
  16252.225  0.34196481   41310.836
  16254.323  0.34253422   41438.973
  16256.423  0.34248799   41688.102
  16258.698  0.34128044   41787.215
  16260.801  0.33853711   42015.316
  16262.902  0.33577086   42018.406
  16265.180  0.33444422   42464.484
  16267.282  0.33374367   42715.551
  16269.562  0.33364186   42687.605
  16271.841  0.33432733   42870.648
  16274.121  0.33520427    43102.68
  16276.400   0.3357472   43166.695
  16278.682  0.33711875   43476.703
  16280.965  0.33804729   43794.695
  16283.422  0.33728808    43870.68
  16285.705  0.33669582   44047.648
  16288.165  0.33490268   44221.605
  16290.450  0.33292718   44587.551
  16292.911  0.33037749   44657.488
  16295.373  0.32808287    44921.41
  16297.836  0.32662792   45130.316
  16300.300  0.32505245   45229.215
  16302.764    0.324615   45678.102
  16305.404  0.32280048   45721.977
  16307.870  0.32116031   45854.836
  16310.514  0.32052281   46253.688
  16312.980  0.31969434   46498.523
  16315.624  0.31883131   46624.348
  16318.271  0.31986446    46866.16
  16320.918  0.32067875   47104.965
  16323.563  0.32195996   47342.754
  16326.212   0.3236089   47475.531
  16329.038  0.32542942   47622.293
  16331.687  0.32718533   48052.047
  16334.515  0.32806724   48272.789
  16337.165  0.32783663    48395.52
  16339.995  0.32729406   48740.234
  16342.827  0.32595297   48856.941
  16345.657  0.32432463   49148.633
  16348.490  0.32249474   49353.313
  16351.322   0.3205575    49548.98
  16354.333  0.31912703   49782.641
  16357.169  0.31764041   49897.285
  16360.007  0.31589067   49996.918
  16363.021  0.31451656   50317.535
  16366.036  0.31314831   50506.145
  16369.054  0.31293026   50857.742
  16372.071  0.31293401   51253.328
  16375.092  0.31298569   51165.898
  16378.111  0.31348619   51380.461
  16381.133  0.31389392   51678.008
  16384.156  0.31434456   51935.543
  16387.357  0.31374942   52036.066
  16390.383  0.31273451   52237.578
  16393.586  0.31123039   52447.082
  16396.791  0.30996586   52841.566
  16399.998  0.30877384   52995.043
  16403.207  0.30823298   53076.508
  16406.416  0.30695611   53357.961
  16409.627  0.30597754   53718.398
  16412.840   0.3054082   54003.828
  16416.230  0.30583448   54025.242
  16419.445  0.30647183   54287.648
  16422.840  0.30686705   54480.039
  16426.057  0.30757953   54733.418
  16429.455   0.3080212   55083.785
  16432.854  0.30754506   55023.141
  16436.254  0.30681063   55115.484
  16439.656  0.30587045   55429.816
  16443.236  0.30564247   55874.137
  16446.643   0.3046664   55900.445
  16450.049  0.30356272   56252.738
  16453.635  0.30206361   56203.023
  16457.223  0.30098559   56505.293
  16460.635  0.29985415   56702.551
  16464.227  0.29895386   56797.801
  16467.818  0.29876524   57242.035
  16471.412  0.29831145   57401.258
  16475.010    0.297819   57598.469
  16478.787  0.29696075   57596.668
  16482.387  0.29570514   57731.855
  16485.988  0.29488791   58088.027
  16489.771  0.29478488   58281.191
  16493.557  0.29520813   58498.344
  16497.162  0.29517077    58582.48
  16500.949  0.29511217   58748.609
  16504.740  0.29429639   59268.723
  16508.533  0.29377906   59267.824
  16512.326  0.29264558   59338.914
  16516.301  0.29240567   59423.992
  16520.100  0.29194023   59687.059
  16523.898  0.29079784   60075.113
  16527.881  0.29063884   60353.156
  16531.865  0.29031456   60415.188
  16535.668  0.28965522   60625.207
  16539.656   0.2888324   60762.211
  16543.645  0.28822836   60852.207
  16547.639   0.2877852   61017.188
  16551.631   0.2866078   61370.156
  16555.809  0.28613536   61711.117
  16559.807   0.2851366   61757.063
  16563.986  0.28402762   61617.996
  16567.988  0.28346164   61655.918
  16572.176  0.28306834   61754.828
  16576.361  0.28248253   62158.727
  16580.371  0.28247774   62314.609
  16584.561  0.28238479   62678.484
  16588.756  0.28238089   62582.348
  16592.953  0.28174699   62945.195
  16597.334  0.28072862   62923.031
  16601.533  0.27979057   63327.859
  16605.736  0.27866052   63160.672
  16610.125  0.27762021   63453.473
  16614.514  0.27641056   63633.262
  16618.725  0.27554585   63654.039
  16623.119   0.2750562   64048.805
  16627.516  0.27456256   63962.559
  16631.916  0.27421777   64271.301
  16636.318  0.27423323   64482.027
  16640.725  0.27417558   64657.746
  16645.313  0.27369253   64478.449
  16649.723  0.27305451   64414.145
  16654.318  0.27282269   64588.824
  16658.732  0.27222809   64658.492
  16663.332  0.27163579   64812.148
  16667.936   0.2710343   64538.793
  16672.357   0.2693909   65175.426
  16676.965  0.26860722   65606.047
  16681.762  0.26788696   65395.656
  16686.375  0.26712227   65424.254
  16690.990  0.26633933   65499.836
  16695.609  0.26591345   65927.414
  16700.416   0.2654204   65675.969
  16705.041  0.26488136   65820.516
  16709.852  0.26552039   65770.055
  16714.666  0.26471533   65770.578
  16719.299  0.26392237   66010.094
  16724.119  0.26339714   66170.594
  16728.941  0.26273553   66167.078
  16733.768  0.26184334   66518.555
  16738.596  0.26096521   66756.023
  16743.613  0.26014951   66819.469
  16748.449   0.2593588   66680.914
  16753.285  0.25800992   66650.344
  16758.313   0.2570277   66752.758
  16763.342  0.25694765   67109.156
  16768.188  0.25674256   66708.555
  16773.223   0.2563863    66836.93
  16778.262  0.25681048   66363.297
  16783.305  0.25404788   66963.656
  16788.348  0.25420712       67264
  16793.396  0.25387411   67206.328
  16798.635  0.25304068   67126.648
  16803.689  0.25177277   67444.953
  16808.746  0.25148861    67578.25
  16813.994   0.2512351   67461.531
  16819.059  0.25030581   67689.805
  16824.313  0.25012399   67366.063
  16829.570  0.24945236   67384.313
  16834.832  0.24866112   67558.547
  16840.096  0.24850095   67618.773
  16845.363  0.24764512   67563.984
  16850.635  0.24668452    67525.18
  16855.910  0.24548855   67952.367
  16861.377   0.2448799   67672.539
  16866.658  0.24430497   67678.703
  16872.131  0.24307614   67655.859
  16877.420  0.24229226   67936.992
  16882.900  0.24169792   67800.125
  16888.385  0.24100027   67987.234
  16893.684   0.2406537   67629.336
  16899.174  0.23988562    67778.43
  16904.670  0.23935289   67883.508
  16910.170  0.23849522   68146.578
  16915.861  0.23846831   67917.633
  16921.367  0.23799806   67743.672
  16926.877   0.2382152   67844.703
  16932.580  0.23707123   68224.719
  16938.098  0.23617776   68006.727
  16943.809  0.23602316   67727.719
  16949.525  0.23467518   67881.703
  16955.055  0.23435423   67825.672
  16960.777  0.23228784   68028.633
  16966.504  0.23167277   67981.578
  16972.234   0.2307709   68140.508
  16977.969  0.23307448    68172.43
  16983.709  0.23256334   67766.344
  16989.643  0.22950258   67843.242
  16995.389  0.22897131   67979.125
  17001.332  0.22888596       67587
