# XDI/1.0 EXAFS Data Collector 1.1 AD.RGN
# Column.1: energy eV
# Column.2: mutrans
# Column.2: murefer
# Column.3: i0
# Beamline.name: SSRL 4-3
# Detector.I0: N2 15cm
# Detector.I1: N2+Ar 30cm
# Detector.I2: Ar
# Element.edge: K
# Element.symbol: Sr
# Mono.d_spacing: 1.920128
# Mono.name: Si(220)
# Mono.notes: (?) unfocussed, detuned 50%, clockwise at E=17000eV
# Sample.formula: SrO
# Sample.name: strontium oxide
# Sample.prep: powder
# Sample.reference: SrCO3
# Sample.temperature: 10K
# Scan.start_time: 1995-06-16 02:32:00
# ///
#    Note: mono d_spacing is nominal!
#-------------
#   energy   mutrans        murefer      i0
  15699.933  0.99004407  -1.1264039   76951.703
  15710.044  0.98865607  -1.1276271   76511.703
  15719.844  0.98763655   -1.128729   76084.703
  15729.982  0.98622206  -1.1301194   75644.703
  15740.136  0.98465558   -1.131356   75282.703
  15749.973  0.98318498  -1.1328197   74872.703
  15760.152  0.98318721  -1.1340514   73386.703
  15770.016  0.97703027  -1.1353107   74131.703
  15779.891  0.97879488  -1.1366781   73900.703
  15790.109  0.97721572  -1.1379923   73523.703
  15800.011  0.97574528  -1.1393882   73147.703
  15809.925  0.97433766  -1.1408402   72856.703
  15819.854  0.97281901  -1.1422791   72510.703
  15830.124  0.97144176  -1.1438179   72043.703
  15840.076  0.96997744  -1.1449382   71716.703
  15850.042  0.96852786  -1.1467282   71433.703
  15860.021  0.96721471  -1.1479239   71042.703
  15870.012  0.96585214  -1.1493418   70764.703
  15880.018  0.96449952  -1.1507648   70406.703
  15890.033  0.96308044  -1.1522221   70073.703
  15900.063  0.96173239  -1.1535386   69785.703
  15910.108  0.96029729  -1.1551164   69408.703
  15920.164  0.95897059  -1.1565554   69149.703
  15929.896  0.95769582  -1.1579707   68829.703
  15939.978  0.95615098  -1.1593622   68486.703
  15950.073  0.95477745  -1.1608341   68114.703
  15959.844  0.95295803  -1.1622588   67749.703
  15969.964  0.95299674  -1.1635985   67443.703
  15980.097  0.95097383  -1.1653109   67198.703
  15989.906   0.9496509  -1.1665686   66830.703
  16000.064  0.94872043  -1.1679841   66569.703
  16009.897  0.94720803  -1.1693864   66324.703
  16020.082  0.94583311  -1.1709442   66014.703
  16029.942   0.9454113  -1.1723276   65667.703
  16040.152  0.94413204  -1.1737593   65308.699
  16050.036  0.94305081  -1.1753053   65032.699
  16059.933  0.94229271  -1.1766433   64721.699
  16069.841   0.9418149  -1.1782161   64290.699
  16080.104  0.94173121  -1.1797633   64041.699
  16090.039  0.94223512  -1.1810977   63750.699
  16099.984  0.94407037  -1.1826665   63407.699
  16109.943  0.94864857  -1.1840675   63024.699
  16119.917  0.96097031  -1.1855284   62744.699
  16121.293   0.9636218  -1.1857383   62714.699
  16122.670  0.96692371  -1.1858875   62761.699
  16123.702  0.96978236  -1.1858145   62851.699
  16125.079  0.97490809  -1.1858626   62779.699
  16126.112  0.97967392  -1.1861411   62714.699
  16127.490  0.98824709  -1.1864363   62671.699
  16128.867  0.99986933  -1.1865743   62610.699
  16129.901   1.0116313  -1.1865687   62677.699
  16131.278   1.0364021  -1.1869622   62597.699
  16132.657   1.0785545  -1.1871907   62481.699
  16133.690   1.1270583  -1.1871911   62509.699
  16135.069   1.2222241  -1.1871091   62592.699
  16136.104   1.3050881  -1.1870621   62534.699
  16137.483   1.4254855  -1.1865958   62573.699
  16138.861   1.5271672  -1.1866051   62487.699
  16139.897   1.5888677  -1.1862561   62516.699
  16141.276   1.6776836  -1.1859968   62418.699
  16142.657    1.790373  -1.1861379   62344.699
  16143.692   1.8820227  -1.1855028   62339.699
  16145.073   1.9971023  -1.1853498   62265.699
  16146.108   2.0459859  -1.1851254   62251.699
  16147.490   2.0450681  -1.1848635   62248.699
  16148.871   1.9933088   -1.185393   62132.699
  16149.907   1.9460276   -1.185726   62154.699
  16151.289   1.8897157  -1.1862609   62205.699
  16152.670   1.8501737  -1.1865952   62115.699
  16153.707   1.8277534  -1.1867962   62100.699
  16155.090   1.7995578  -1.1870011    124098.4
  16155.779   1.7883378  -1.1870662   123957.36
  16156.473   1.7772955  -1.1871503   123991.25
  16157.162   1.7668067   -1.187567   123908.05
  16157.854   1.7575355  -1.1875341   123986.79
  16158.547   1.7491951  -1.1875734   123944.44
  16159.237   1.7411042  -1.1878747   124056.02
  16160.274   1.7290047  -1.1879598   124049.52
  16160.968    1.721417  -1.1880693   123992.95
  16161.659   1.7126824  -1.1882693   124170.29
  16162.695   1.6989183  -1.1884943   124137.56
  16163.389   1.6911526  -1.1887764   124280.76
  16164.426   1.6811242  -1.1888181   124379.87
  16165.465   1.6758246  -1.1891621   124487.91
  16166.157    1.674949  -1.1892689   124582.87
  16167.195    1.677186  -1.1894122   124696.77
  16168.234   1.6822275  -1.1894586   124531.58
  16169.271   1.6884586   -1.189536   124260.31
  16170.311   1.6948514  -1.1896834   124457.97
  16171.349   1.7024283  -1.1897143   124531.55
  16172.388    1.710872  -1.1897092   124917.05
  16173.428   1.7200235  -1.1898782   125550.48
  16174.466   1.7321142  -1.1898889   126120.83
  16175.506   1.7452921  -1.1898541    126274.1
  16176.545   1.7598514  -1.1899468    126502.3
  16177.932   1.7801926  -1.1903101   126584.41
  16178.971   1.7941687  -1.1901453   126931.45
  16180.012   1.8075576  -1.1902291   127206.42
  16181.399   1.8227499  -1.1905446   127429.31
  16182.440   1.8308234  -1.1905223   127940.12
  16183.826   1.8369475  -1.1905233   128212.86
  16185.214   1.8358888  -1.1906007   128498.52
  16186.254   1.8304887  -1.1908827    128855.1
  16187.644   1.8177421  -1.1912409   129138.61
  16189.030   1.8031669  -1.1913642   129467.03
  16190.419   1.7901596  -1.1917062   129824.38
  16191.809   1.7811015  -1.1918058   130279.66
  16193.197    1.775867   -1.191998   130637.86
  16194.587    1.772886  -1.1921654   131018.98
  16195.976    1.770267  -1.1923236   131438.03
  16197.366   1.7670922  -1.1925933      131716
  16198.755   1.7627783  -1.1926918   132090.89
  16200.493   1.7550652   -1.192999    132640.7
  16201.884   1.7477881  -1.1933469   132933.44
  16203.274   1.7395312  -1.1935655   133477.09
  16205.013    1.728742  -1.1936907   133984.69
  16206.405   1.7219987  -1.1940222   134535.19
  16208.145   1.7157909   -1.194293   134949.62
  16209.884    1.712795  -1.1945145   135361.97
  16211.276   1.7126304  -1.1948332   135900.25
  16213.016   1.7141293  -1.1949156   136265.45
  16214.757   1.7158004  -1.1951896   136921.58
  16216.499   1.7163308  -1.1953388   137316.62
  16218.240   1.7162454  -1.1956015   137860.59
  16219.981   1.7169816  -1.1958279   138317.48
  16221.725   1.7198707  -1.1959791    138878.3
  16223.468   1.7250652  -1.1961551   139308.05
  16225.210   1.7321456   -1.196377    139973.7
  16226.954   1.7398728  -1.1967139    140453.3
  16228.698   1.7467746  -1.1968694    141021.8
  16230.792    1.751564  -1.1973721   141367.23
  16232.535   1.7517637  -1.1976403   141697.59
  16234.281   1.7489381   -1.198032   141891.87
  16236.376   1.7442985  -1.1983454   142032.08
  16238.122   1.7420527  -1.1985599    142491.2
  16240.217     1.74325  -1.1988708   142897.25
  16242.313    1.747472  -1.1991791   143508.22
  16244.061    1.750855  -1.1992627   144323.12
  16246.159   1.7524644  -1.1996486   145443.94
  16248.257   1.7503305  -1.1998681   146808.67
  16250.354   1.7443984  -1.2002096   148234.34
  16252.454   1.7363829  -1.2005959   149331.94
  16254.553   1.7282053  -1.2009528   150338.44
  16256.653   1.7208694  -1.2014072   151143.87
  16258.753   1.7143399  -1.2016569   151996.23
  16260.855   1.7088386  -1.2020007   152750.52
  16262.957     1.70479   -1.202114   153175.72
  16265.059     1.70294  -1.2025496   153597.86
  16267.162   1.7024127    -1.20296   154023.91
  16269.616    1.703279  -1.2032476   154422.87
  16271.719   1.7049244   -1.203529   155019.78
  16274.174   1.7064806  -1.2037795   155934.59
  16276.280    1.707225  -1.2040049   156961.34
  16278.736   1.7074677  -1.2043057   158103.02
  16280.844    1.707999  -1.2046835   159362.59
  16283.301   1.7090494  -1.2050691   160491.11
  16285.760   1.7105603  -1.2053383   161369.55
  16288.220   1.7122686  -1.2055642   162137.91
  16290.328   1.7133693  -1.2061787    162759.2
  16292.790    1.712957  -1.2066587   163572.41
  16295.252   1.7108095  -1.2068753   164337.53
  16297.715   1.7100815  -1.2071652   165100.59
  16300.179    1.713029  -1.2078993   166012.56
  16302.994   1.7179592  -1.2081977   166802.47
  16305.459   1.7196278  -1.2084579   167675.28
  16307.925   1.7174485    -1.20892   168549.03
  16310.392   1.7129582  -1.2093051    169442.7
  16313.211   1.7065027  -1.2096903    170293.3
  16315.680   1.7013726  -1.2099577   171423.81
  16318.148   1.6981416  -1.2104302   172292.25
  16320.972   1.6977392  -1.2108328   173195.61
  16323.442   1.7006748  -1.2110148   174208.91
  16326.268   1.7058671  -1.2114136   175066.11
  16329.092   1.7102334  -1.2118835   175837.23
  16331.564   1.7115844  -1.2120771    176827.3
  16334.393   1.7109794  -1.2125035   177776.28
  16337.221   1.7090054  -1.2129123   178700.17
  16340.050   1.7057748  -1.2132078      179559
  16342.881   1.7015673  -1.2137235   180447.75
  16345.713   1.6970608  -1.2141412   181391.42
  16348.544    1.693063  -1.2145511   182535.02
  16351.378   1.6895507  -1.2148358   183587.53
  16354.211   1.6864006   -1.215238   184696.98
  16357.047   1.6830679  -1.2156054   185537.34
  16360.238    1.679183  -1.2160104   186411.62
  16363.076   1.6767736  -1.2164299   187418.84
  16365.914    1.676707  -1.2167373   188203.97
  16369.107    1.680333  -1.2171335   189194.03
  16371.948   1.6850836  -1.2174273   190149.02
  16375.146   1.6894392  -1.2179627   191265.92
  16377.989   1.6922739  -1.2182435   192215.75
  16381.188   1.6947245  -1.2186204    193187.5
  16384.389   1.6965595  -1.2190564   194452.17
  16387.234   1.6977841  -1.2193324   195431.77
  16390.438    1.698083  -1.2197918    196395.3
  16393.641   1.6955843   -1.220211   197461.73
  16396.848   1.6895091  -1.2207031   198262.09
  16400.055   1.6823842  -1.2211284   199390.39
  16403.262   1.6774335  -1.2215476   200227.61
  16406.471   1.6753696  -1.2218986   201210.73
  16409.684   1.6751968  -1.2225664    202405.8
  16412.895   1.6749966  -1.2230338   203487.78
  16416.107   1.6741134   -1.223539   204690.69
  16419.320   1.6717653  -1.2239501   205637.52
  16422.895   1.6683618  -1.2244049   206408.27
  16426.111   1.6653479  -1.2249109   207584.95
  16429.332   1.6641478  -1.2252157   208402.55
  16432.908   1.6656618  -1.2255454   209400.08
  16436.129   1.6674578  -1.2262184   210607.52
  16439.711   1.6691718  -1.2266524   211747.89
  16443.291   1.6708171  -1.2270459   212802.17
  16446.518   1.6723063  -1.2273221   213772.39
  16450.104   1.6732377  -1.2278323   214763.53
  16453.689   1.6719039  -1.2279504   215560.59
  16457.277   1.6699319  -1.2280516   216349.58
  16460.510   1.6690991  -1.2284675   217445.48
  16464.100   1.6675628  -1.2288211   218401.31
  16467.695   1.6638545  -1.2294792   219474.08
  16471.289   1.6589689  -1.2302773   220517.75
  16474.885   1.6545344  -1.2303304   221682.36
  16478.842   1.6520286  -1.2307545   222630.87
  16482.441    1.651394  -1.2313602   223423.33
  16486.043   1.6512416  -1.2319595    224082.7
  16489.646   1.6498217  -1.2322869      225243
  16493.611   1.6479379  -1.2328845    226320.2
  16497.217   1.6477996  -1.2332586   227784.36
  16500.826   1.6496789   -1.233747   228992.42
  16504.797   1.6531894  -1.2341328   229754.41
  16508.406   1.6570196   -1.234765   230807.31
  16512.381   1.6596225   -1.235246   231722.14
  16516.357   1.6575479  -1.2358421   232760.91
  16519.975   1.6534214  -1.2363094   233889.58
  16523.953   1.6494786  -1.2368645   234699.19
  16527.936   1.6464082  -1.2372981   235667.72
  16531.920   1.6443079  -1.2378569   236412.17
  16535.906   1.6430887  -1.2384109   237521.55
  16539.531   1.6419151   -1.238904   238338.84
  16543.520    1.638594  -1.2393955   239284.06
  16547.875   1.6343668  -1.2399148    240233.2
  16551.867   1.6321162  -1.2405586   240992.27
  16555.863   1.6318673  -1.2411144   241801.25
  16559.861   1.6323379  -1.2416112   242697.17
  16563.859   1.6320843  -1.2420469      244077
  16567.863     1.63179  -1.2425525   244990.77
  16572.230   1.6322709   -1.243162   245920.45
  16576.234   1.6333113  -1.2436278   246830.05
  16580.607   1.6356188  -1.2441623   247762.58
  16584.617   1.6366311   -1.244659   248607.03
  16588.992   1.6354688  -1.2452514   249285.41
  16593.008   1.6332835  -1.2459634    250330.7
  16597.387   1.6297711  -1.2469575   251102.94
  16601.406   1.6267238  -1.2475131   251724.08
  16605.793   1.6247146  -1.2481523   252418.14
  16610.182   1.6238611  -1.2488436   253776.14
  16614.570    1.624652  -1.2494449   254942.05
  16618.963    1.624591  -1.2500956   255535.89
  16622.992   1.6233135  -1.2504882   256446.66
  16627.389   1.6207593  -1.2509057   256965.33
  16631.789    1.617827  -1.2516603   257608.94
  16636.191   1.6138992  -1.2521556   258697.47
  16640.963   1.6117937  -1.2528366   259344.92
  16645.369   1.6105924  -1.2533061   260168.31
  16649.779   1.6095695  -1.2537647   260860.61
  16654.189   1.6092224  -1.2542662   261397.83
  16658.604   1.6104106  -1.2548026   262536.97
  16663.389   1.6127746   -1.255335   262995.06
  16667.809    1.614041  -1.2559359   263702.03
  16672.598   1.6134355  -1.2566135   264517.97
  16677.021   1.6121436  -1.2572604   265265.81
  16681.818   1.6095298  -1.2580131   266164.56
  16686.246   1.6056623  -1.2585866   266647.25
  16691.047   1.6022733  -1.2590326   267373.87
  16695.480   1.6005572  -1.2594778   268174.41
  16700.287   1.5994529  -1.2601263   268922.84
  16705.096   1.5984299  -1.2607166   269394.22
  16709.908   1.5976997  -1.2612538   269903.53
  16714.723   1.5972044  -1.2619076   269862.75
  16719.170    1.594101  -1.2624722   271314.91
  16723.990   1.5920523  -1.2630125   271961.97
  16728.813   1.5914041  -1.2635291   272382.97
  16733.639   1.5916304  -1.2643208   272864.91
  16738.840   1.5924623   -1.265061   273428.75
  16743.670   1.5927946  -1.2653284    274136.5
  16748.506   1.5918401  -1.2660565   274928.19
  16753.342   1.5896691  -1.2666222   275421.81
  16758.182   1.5877764  -1.2673274   275724.34
  16763.396   1.5866137  -1.2679286   276103.81
  16768.244   1.5859388   -1.268648   276763.19
  16773.094   1.5853724  -1.2692301    277197.5
  16778.318   1.5832251  -1.2698496   277557.72
  16783.174    1.581003  -1.2703197   278418.87
  16788.404   1.5789168  -1.2710079   278395.94
  16793.641   1.5768843  -1.2716508   278555.94
  16798.504   1.5753461  -1.2723593   279334.87
  16803.746   1.5740665  -1.2728848   279994.72
  16808.990   1.5735142  -1.2734107   279949.47
  16813.863   1.5723669  -1.2739754   280089.16
  16819.115    1.570702  -1.2746192   279476.78
  16824.369   1.5695014  -1.2753889   281488.31
  16829.627   1.5690213  -1.2759212   282094.78
  16834.887   1.5689151  -1.2764218   281788.16
  16840.152   1.5675101  -1.2769632   282808.47
  16845.420   1.5651462    -1.27752   282964.72
  16850.691   1.5631378  -1.2780036   283032.84
  16855.965   1.5619735  -1.2785801   283304.94
  16861.244    1.562272  -1.2793823   283575.94
  16866.525   1.5622845  -1.2801615   283531.87
  16872.188   1.5615519  -1.2808703   283452.72
  16877.477   1.5596542  -1.2816316   283980.47
  16882.768   1.5567766  -1.2822349   283951.16
  16888.441   1.5544035  -1.2829324   283953.78
  16893.740   1.5526913  -1.2836148   284449.31
  16899.041   1.5502159  -1.2842073   284837.78
  16904.727   1.5473791   -1.284825   284917.19
  16910.416   1.5457048  -1.2854838    285151.5
  16915.729   1.5449714  -1.2860878   285019.72
  16921.424   1.5452343  -1.2866574   285349.87
  16926.744   1.5453343  -1.2870965   285276.97
  16932.447     1.54445  -1.2877539   285283.97
  16938.154   1.5424004  -1.2886424   285149.87
  16943.865   1.5407825  -1.2893396   285506.72
  16949.582     1.54005  -1.2901031    285587.5
  16955.301   1.5384884  -1.2907165   285659.19
  16960.643   1.5361107  -1.2907294   285677.81
  16966.371   1.5339453  -1.2910631   285815.37
  16972.100   1.5329227  -1.2917246   285647.81
  16977.836   1.5320035  -1.2923817   285588.22
  16983.957   1.5306844   -1.293364   285261.53
  16989.699   1.5289549  -1.2938905   284928.75
  16995.447   1.5279906  -1.2946559   285048.91
  17001.197   1.5261839  -1.2954167      285264
