# XDI/1.0 EXAFS Data Collector 1.1 AD.RGN
# Column.1: energy eV
# Column.2: mutrans
# Column.3: mufluor
# Column.4: murefer
# Column.5: i0
# Beamline.name: SSRL 4-3
# Detector.I0: N2 15cm
# Detector.I1: N2+Ar 30cm
# Detector.If: Ar   (Lytle detector, using Rb Filter)
# Detector.I2: Ar
# Element.edge: K
# Element.symbol: Sr
# Mono.d_spacing: 1.920128
# Mono.name: Si(220)
# Mono.notes: (?) unfocussed, detuned 50%, clockwise at E=17000eV
# Sample.formula: SrO
# Sample.name: strontium oxide
# Sample.prep: powder
# Sample.reference: SrCO3
# Sample.temperature: room temperature
# Scan.start_time: 1995-06-14 19:09:21
# ///
#    Note: mono d_spacing is nominal!
#-------------
#   energy   mutrans    mufluor     murefer      i0
  15699.933   -1.626806  0.37898254   1.0778131   197185.59
  15710.044  -1.6292678  0.37631981   1.0765181   195899.59
  15719.844  -1.6317838  0.37301026   1.0752328   194723.59
  15729.982  -1.6342549  0.36842647   1.0739235   193343.59
  15740.136  -1.6368547  0.36533516   1.0725808   191927.59
  15749.973  -1.6393166  0.36123057   1.0713502   190581.59
  15760.152  -1.6420182  0.35837343   1.0700317   187114.59
  15770.016  -1.6443804  0.35348454   1.0688463   188228.59
  15779.891  -1.6467595  0.34854939    1.067543   187479.59
  15790.109  -1.6493219  0.34511146   1.0661446   186110.59
  15800.011  -1.6517778   0.3408116   1.0649003   184717.59
  15809.925  -1.6542131  0.33734237   1.0636589   183510.59
  15819.854  -1.6567272  0.33273003   1.0623422   182273.59
  15830.124  -1.6592512  0.32911088   1.0610205   181166.59
  15840.076   -1.661688  0.32554824   1.0597264   180040.59
  15850.042  -1.6640957  0.32151939   1.0584106   178853.59
  15860.021  -1.6665491  0.31810457   1.0571272   177359.59
  15870.012  -1.6689845  0.31480049   1.0558961   176549.59
  15880.018  -1.6714498  0.31110135   1.0545946   175106.59
  15890.033  -1.6738906  0.30851903   1.0533401   173930.59
  15900.063   -1.676343   0.3054774   1.0519968   172804.59
  15910.108  -1.6787332  0.30249998   1.0507136   171609.59
  15920.164  -1.6811786  0.30012741   1.0494489   170470.59
  15929.896  -1.6834869  0.29752014    1.048131   169275.59
  15939.978  -1.6858997   0.2958046   1.0468485   168012.59
  15950.073  -1.6882534   0.2942089   1.0455642   166510.59
  15959.844  -1.6905232  0.29308249   1.0444324   165345.59
  15969.964  -1.6928598  0.29210922   1.0430143   164328.59
  15980.097  -1.6951467  0.29193273   1.0417797   163088.59
  15989.906  -1.6973552  0.29299783    1.040547   161932.59
  16000.064  -1.6996672  0.29412617   1.0392331   160743.59
  16009.897  -1.7017949  0.29507324   1.0380247   159512.59
  16020.082  -1.7039575   0.2994034   1.0367209   158197.59
  16029.942   -1.706106  0.30337071   1.0354371   157005.59
  16040.152  -1.7079926  0.30988889   1.0342383   155671.59
  16050.036  -1.7098029  0.31906806   1.0330612   154615.59
  16059.933  -1.7113892  0.33136671   1.0318556   153376.59
  16069.841  -1.7127356  0.34665299    1.030718   152183.59
  16080.104  -1.7136757  0.37296263   1.0295301   150966.59
  16090.039  -1.7138088  0.40833532   1.0284426   149707.59
  16099.984  -1.7124705   0.4679784   1.0275444   148318.59
  16109.943  -1.7078477   0.5762303   1.0270422   147265.59
  16119.917  -1.6931301  0.83891932   1.0275216   146241.59
  16121.293  -1.6900474  0.88920624   1.0277079   146115.59
  16122.670  -1.6857831  0.95623716   1.0279613   145938.59
  16123.702  -1.6819646   1.0177329    1.028271   145735.59
  16125.079  -1.6749523    1.126243   1.0287772   145705.59
  16126.112  -1.6683354    1.228647   1.0294286   145662.59
  16127.490   -1.655988   1.4155631    1.030579   145451.59
  16128.867  -1.6371138   1.6991475   1.0323874   145334.59
  16129.901  -1.6165177   2.0019624   1.0343709   145089.59
  16131.278  -1.5712978   2.6498929   1.0389159   144849.59
  16132.657  -1.5038536   3.5619955    1.046021   144983.59
  16133.690  -1.4401031    4.367793   1.0531075   144786.59
  16135.069  -1.3336829   5.5813001   1.0653918   144484.59
  16136.104  -1.2483531   6.4603583   1.0751745   144468.59
  16137.483    -1.12047   7.6551639   1.0902631   144285.59
  16138.861 -0.98667956   8.7949293   1.1073779   144074.59
  16139.897 -0.88239062   9.6302687   1.1214056   144207.59
  16141.276 -0.74103568   9.6484378   1.1398749   143903.59
  16142.657 -0.61911823   9.6642129   1.1534622   143668.59
  16143.692 -0.55354492   9.6729586   1.1585227   143538.59
  16145.073 -0.50780542   9.6816248   1.1580308   143409.59
  16146.108 -0.51016498   9.7061463   1.1531047   143047.59
  16147.490 -0.54933103   9.7026801   1.1431955   143098.59
  16148.871 -0.60513935   9.7175989    1.132474   142878.59
  16149.907 -0.64460738   9.7235668    1.125354   142790.59
  16151.289 -0.69099878    9.737629   1.1169325   142584.59
  16152.670 -0.72474131   9.7530879   1.1111204   142358.59
  16153.707 -0.74498369   9.7698191   1.1082112   142114.59
  16155.090 -0.77042367   9.7619637    1.105596   284457.19
  16155.779 -0.78133965    9.759134   1.1046694   284539.16
  16156.473 -0.79319752   9.7646015   1.1039616   284449.06
  16157.162 -0.80531534   9.7696026   1.1033094   284371.91
  16157.854 -0.81790789   9.7689161   1.1028008   284535.69
  16158.547 -0.83043481   9.7855759    1.102368   284259.41
  16159.237 -0.84249423   9.7785372    1.102094   284467.06
  16160.274 -0.85965041   9.6603865    1.102057   284615.66
  16160.968 -0.86820804    9.601248   1.1022747   284420.19
  16161.659 -0.87542454   9.5520818   1.1024851   284331.66
  16162.695 -0.88284769   9.5070263    1.103422   284453.06
  16163.389 -0.88454804   9.4978962   1.1041112   284627.37
  16164.426 -0.88359852   9.5178026   1.1054424   284551.66
  16165.465 -0.87892563   9.5622694   1.1067985   284592.87
  16166.157 -0.87446695   9.5996798   1.1076109   284488.03
  16167.195 -0.86581653   9.6692004   1.1088535   283942.09
  16168.234 -0.85636522   9.7481075   1.1097819   284134.12
  16169.271 -0.84633225    9.837256   1.1105779   284225.09
  16170.311 -0.83600914   9.9182153    1.111622      284772
  16171.349 -0.82573222   9.9424431   1.1128068   285371.81
  16172.388 -0.81532325   9.9426582   1.1139914   285920.59
  16173.428 -0.80492284   9.9261398   1.1154322   287046.28
  16174.466 -0.79472244   9.9159919   1.1167886   288056.94
  16175.506 -0.78542884   9.9135983    1.117948   288843.53
  16176.545 -0.77679631   9.9288351   1.1190134   289185.03
  16177.932 -0.76651007   9.9614088    1.119997    289055.5
  16178.971 -0.76007571   9.9672142   1.1204181   289736.87
  16180.012 -0.75460755    9.976878   1.1206707   290305.22
  16181.399 -0.74930811   9.9968331   1.1204555   290640.47
  16182.440 -0.74712362   10.007397   1.1200243   291281.69
  16183.826 -0.74638102   10.014796   1.1192166   292013.81
  16185.214 -0.74769333   10.023937   1.1182269   292760.91
  16186.254 -0.74968542   10.033089   1.1174578   293506.91
  16187.644 -0.75328255   10.058587   1.1161311   293840.87
  16189.030 -0.75714874   10.080586   1.1147192   294274.75
  16190.419  -0.7612193   10.085493   1.1132188   295273.59
  16191.809 -0.76578808   10.099005   1.1115161   296019.34
  16193.197 -0.77111788   10.107167   1.1100778   296987.03
  16194.587 -0.77772309   10.116632   1.1086912   297914.69
  16195.976 -0.78563845   10.131956   1.1075468   298702.25
  16197.366 -0.79452592   10.151044   1.1064286   299468.75
  16198.755 -0.80408493   10.161881   1.1054253   300534.22
  16200.493 -0.81625665   10.150954   1.1044042   301241.59
  16201.884 -0.82484886   10.092837   1.1037124   301765.91
  16203.274 -0.83236632   10.039529   1.1032213   303368.16
  16205.013 -0.84020944   9.9904545   1.1028924   304090.34
  16206.405 -0.84454122   9.9617791     1.10286    304911.5
  16208.145 -0.84814491    9.944221   1.1031736   306058.56
  16209.884  -0.8495874   9.9382734    1.103601   307199.56
  16211.276 -0.84952174   9.9470798   1.1040864    308119.5
  16213.016 -0.84803085   9.9665959   1.1046834   309408.37
  16214.757  -0.8455049   9.9923474   1.1051052   310171.19
  16216.499 -0.84223304   10.020141   1.1053946   311745.94
  16218.240 -0.83868615   10.057012   1.1054963   312626.66
  16219.981 -0.83498484   10.092174   1.1056035   314013.28
  16221.725 -0.83127371   10.126434   1.1055171   315034.84
  16223.468 -0.82780012   10.155571   1.1053309   315764.34
  16225.210 -0.82461386   10.191598   1.1052164   316495.78
  16226.954 -0.82183938   10.216683   1.1050048   317472.16
  16228.698 -0.81993773   10.229365   1.1048395   317890.47
  16230.792 -0.81898532   10.242762   1.1048239   319043.72
  16232.535 -0.81941431   10.245309   1.1047854   319722.87
  16234.281 -0.82059963   10.242453   1.1047082      320609
  16236.376 -0.82255323   10.236659   1.1045273   321688.06
  16238.122 -0.82420002   10.237636   1.1042621   323333.06
  16240.217 -0.82594946   10.233821    1.103619      325258
  16242.313  -0.8276649   10.234127   1.1028864   327029.87
  16244.061 -0.82933852   10.230712   1.1021011   329022.69
  16246.159 -0.83162469    10.22629   1.1011709   331884.41
  16248.257 -0.83406238   10.218865   1.1002234   334010.09
  16250.354 -0.83665377   10.209749   1.0990258   336470.72
  16252.454 -0.83944741   10.195141   1.0990156   338635.28
  16254.553  -0.8424202   10.177016   1.0984483   340598.78
  16256.653 -0.84540657    10.15424   1.0976317   342499.19
  16258.753  -0.8486454   10.134731   1.0972658   343535.56
  16260.855 -0.85184917   10.112084   1.0968513   344511.87
  16262.957 -0.85505981   10.096539   1.0965675   345709.09
  16265.059 -0.85823145   10.079605   1.0962682   347314.28
  16267.162 -0.86153075   10.060869   1.0959857   348702.41
  16269.616 -0.86540232   10.039735   1.0956955   350020.44
  16271.719 -0.86821636    10.02866   1.0954132   352062.44
  16274.174 -0.87057044    10.01789   1.0952092   353574.34
  16276.280 -0.87140637   10.025511   1.0950969   356062.22
  16278.736 -0.87106771   10.037414   1.0949383      357455
  16280.844  -0.8699348   10.056279   1.0949662   359852.75
  16283.301 -0.86803956   10.081377   1.0949965   361191.41
  16285.760 -0.86601257     10.1075   1.0949715   363414.03
  16288.220 -0.86435584   10.128474   1.0948048   365338.56
  16290.328 -0.86342954   10.147285   1.0945014   367446.06
  16292.790 -0.86267078   10.160985   1.0940773   369139.47
  16295.252 -0.86206704    10.17499   1.0936226   370700.84
  16297.715 -0.86145547   10.191148   1.0930679   371971.12
  16300.179 -0.86074031   10.207771   1.0927039   373742.34
  16302.994   -0.860439   10.219363   1.0925134   375371.53
  16305.459 -0.86109236   10.223291   1.0924741   377537.62
  16307.925 -0.86296253    10.21562   1.0924042   379507.69
  16310.392 -0.86601475   10.200075   1.0920156   381361.66
  16313.211 -0.86987937   10.183093    1.091651   383329.56
  16315.680 -0.87263279   10.170937   1.0913017   384573.41
  16318.148 -0.87443832   10.168375   1.0909352   386921.22
  16320.972 -0.87555791   10.170267   1.0903774   388276.94
  16323.442 -0.87599307   10.177655   1.0898712   390592.59
  16326.268 -0.87632253   10.186892   1.0891936   392338.19
  16329.092 -0.87665176   10.194601    1.088655   394474.72
  16331.564 -0.87709822   10.201411   1.0882246   396244.22
  16334.393 -0.87764936   10.211039   1.0877214   398171.62
  16337.221 -0.87849841   10.215903   1.0871796   399933.97
  16340.050 -0.87972197   10.215753   1.0866377   401995.25
  16342.881 -0.88136722   10.217026   1.0861658   404513.47
  16345.713 -0.88346047   10.212441   1.0856289   406314.62
  16348.544 -0.88587418   10.204142   1.0852434   407996.72
  16351.378 -0.88831282   10.197445   1.0850324   409745.75
  16354.211 -0.89058089    10.19157   1.0847271   412203.72
  16357.047  -0.8925725   10.184121   1.0845644   414164.62
  16360.238 -0.89451026   10.186152   1.0844801   415524.47
  16363.076 -0.89577895   10.188065   1.0843083   417222.25
  16365.914 -0.89647109   10.195082   1.0840864   419684.97
  16369.107 -0.89662134    10.20461   1.0837225   421895.62
  16371.948 -0.89651862   10.217815    1.083374   423710.22
  16375.146 -0.89650263   10.231081   1.0829292   425226.75
  16377.989 -0.89675168   10.237814   1.0824413   427766.22
  16381.188 -0.89742186   10.246075   1.0818652   429803.62
  16384.389 -0.89824207   10.254662   1.0812747   431923.97
  16387.234 -0.89898543    10.25934   1.0807959   433812.22
  16390.438 -0.89982358   10.267394   1.0802281   435271.44
  16393.641 -0.90074481   10.274378   1.0796973   437389.59
  16396.848 -0.90193932   10.278723   1.0792375   439786.69
  16400.055 -0.90328764   10.280812   1.0787742   441667.72
  16403.262 -0.90500069   10.280602   1.0783316   443480.66
  16406.471 -0.90693257   10.278479   1.0779097   445698.56
  16409.684 -0.90910793   10.274262     1.07759   447628.41
  16412.895 -0.91137417    10.27059   1.0771711   449354.16
  16416.107  -0.9135051   10.264485   1.0767918   451720.87
  16419.320 -0.91554241   10.262077   1.0762943   453292.53
  16422.895 -0.91750493   10.262029   1.0758365   454760.09
  16426.111 -0.91879998   10.262086   1.0752565   456645.62
  16429.332  -0.9197569   10.268761   1.0747404   459050.09
  16432.908 -0.92063917   10.276189   1.0741663   460732.47
  16436.129 -0.92135028   10.286148   1.0736781   463291.81
  16439.711  -0.9221354   10.295847   1.0732204   464976.06
  16443.291 -0.92305134   10.302835   1.0727375   467047.28
  16446.518 -0.92394569   10.306467   1.0723817   469311.41
  16450.104 -0.92499396   10.313472   1.0719185    470718.5
  16453.689 -0.92604142   10.318829   1.0715636    472797.5
  16457.277 -0.92718523   10.323892   1.0711823   474863.47
  16460.510 -0.92839552   10.331037   1.0708451   477175.34
  16464.100 -0.92993018   10.331346   1.0704199   478800.19
  16467.695 -0.93158596   10.333239   1.0699368   481035.94
  16471.289 -0.93323426   10.334924   1.0694904   483166.66
  16474.885 -0.93487684   10.336925    1.068947   484670.28
  16478.842 -0.93651205   10.339588   1.0683749   486406.84
  16482.441 -0.93785465   10.346228   1.0678876   487963.37
  16486.043 -0.93909533   10.351853   1.0673673   488536.81
  16489.646 -0.94019503   10.357404   1.0668177   491262.19
  16493.611 -0.94123891   10.364837   1.0663303    493108.5
  16497.217 -0.94206003   10.373291   1.0658587   495698.78
  16500.826 -0.94289143    10.37897   1.0653305   497395.97
  16504.797 -0.94394518   10.390319   1.0648102   498335.09
  16508.406 -0.94494048   10.394965    1.064364   500810.16
  16512.381 -0.94631795   10.400515   1.0638817   501603.19
  16516.357 -0.94780861   10.404173   1.0632613   503217.12
  16519.975 -0.94926582    10.40744   1.0628024      505411
  16523.953 -0.95095553   10.407524    1.062316   507880.81
  16527.936 -0.95279455   10.410428   1.0618087   509185.56
  16531.920 -0.95461847   10.410646   1.0613113   510969.25
  16535.906 -0.95641833   10.415726   1.0608596   512174.87
  16539.531 -0.95786784    10.41651   1.0603569   514514.44
  16543.520 -0.95940404   10.422106   1.0598016   515420.97
  16547.875 -0.96101653   10.427334   1.0592524   517238.41
  16551.867 -0.96236132    10.43018   1.0587219   518895.78
  16555.863 -0.96384786   10.436204   1.0581641   519790.09
  16559.861 -0.96530761   10.443325   1.0576192   522469.34
  16563.859 -0.96657987   10.446297    1.057105    524362.5
  16567.863 -0.96789004   10.453156   1.0565828   525263.62
  16572.230 -0.96920749   10.459353   1.0560993   527047.69
  16576.234 -0.97040959   10.467605   1.0554723   528243.69
  16580.607 -0.97172784    10.47534   1.0549263   529699.62
  16584.617  -0.9729941   10.478925   1.0543692    530600.5
  16588.992 -0.97453464    10.48538   1.0538137   531796.31
  16593.008 -0.97592602   10.486993   1.0532325   533662.06
  16597.387  -0.9775933   10.492378   1.0526991   534463.75
  16601.406 -0.97913666   10.495577   1.0521567   535967.37
  16605.793 -0.98081836   10.499472   1.0516756   536513.94
  16610.182 -0.98245109   10.504275   1.0511137   539131.37
  16614.570 -0.98411132   10.511587   1.0506076   540268.81
  16618.963 -0.98563701   10.513215   1.0501011   541452.19
  16622.992 -0.98715016   10.520713   1.0495099    542046.5
  16627.389 -0.98875183   10.525143   1.0489213   543589.75
  16631.789 -0.99034919   10.529087   1.0483485   544945.94
  16636.191  -0.9920579   10.530271     1.04774   545802.06
  16640.963 -0.99375034   10.537129   1.0471026   547659.06
  16645.369 -0.99534003   10.542462   1.0464606   548427.06
  16649.779 -0.99682494   10.548363   1.0458969      549740
  16654.189 -0.99829689   10.552704   1.0453381   551116.87
  16658.604 -0.99983897   10.561462   1.0447313   551715.69
  16663.389  -1.0014515   10.562725    1.044188   552156.37
  16667.809  -1.0029909   10.568289   1.0436396   553985.06
  16672.598  -1.0047399   10.572513   1.0430511   554008.69
  16677.021  -1.0064086   10.578942   1.0424255   554282.25
  16681.818  -1.0081981   10.581529   1.0418349   555431.69
  16686.246   -1.009856   10.586771   1.0413201   556757.12
  16691.047   -1.011673   10.593255   1.0406636    555326.5
  16695.480  -1.0132533   10.597863   1.0401535   557013.81
  16700.287  -1.0149465   10.599743   1.0395092      558772
  16705.096  -1.0166467   10.606918   1.0389376   558399.19
  16709.908  -1.0182138   10.610119   1.0383193   558169.31
  16714.723  -1.0200772    10.61896   1.0376574   559775.31
  16719.170  -1.0215462   10.619928   1.0371207   561129.31
  16723.990  -1.0231423   10.627313   1.0365314   561447.25
  16728.813  -1.0247709   10.634166   1.0359252   561809.06
  16733.639  -1.0263797   10.641184   1.0352857   562602.87
  16738.840  -1.0281513   10.645292   1.0346461   563326.62
  16743.670  -1.0297844   10.650444    1.034038   563342.25
  16748.506  -1.0313954   10.654715   1.0334957   563663.87
  16753.342  -1.0330426   10.662166   1.0329045   564999.44
  16758.182   -1.034725   10.665727   1.0322791   565427.87
  16763.396  -1.0365739   10.672915   1.0315925   566173.31
  16768.244  -1.0382597   10.677647   1.0309795   566763.62
  16773.094  -1.0399686   10.683228   1.0303658   566676.94
  16778.318  -1.0418232   10.686934   1.0297361   567232.12
  16783.174  -1.0434949   10.693482   1.0290773   566703.31
  16788.404  -1.0452717   10.698635   1.0284604   567943.44
  16793.641  -1.0470885   10.705038    1.027821   566588.44
  16798.504  -1.0487519   10.707733   1.0272423   566610.44
  16803.746  -1.0505354   10.713229    1.026615   566596.31
  16808.990  -1.0522659   10.720373   1.0259113   565987.19
  16813.863  -1.0535268   10.720822   1.0254386   563734.94
  16819.115  -1.0558262    10.73413   1.0246507   566779.69
  16824.369  -1.0572766   10.738732   1.0241375   568114.31
  16829.627  -1.0589609   10.741705   1.0234803   567544.94
  16834.887  -1.0607113   10.747883   1.0228329   568029.44
  16840.152  -1.0624839   10.754743   1.0222465   567393.94
  16845.420   -1.064243   10.760174     1.02158   566770.31
  16850.691  -1.0659882    10.76195   1.0210003   566700.62
  16855.965  -1.0676715   10.770055   1.0203112   566440.94
  16861.244   -1.069399   10.778765   1.0197662   566212.12
  16866.525  -1.0711641   10.782389   1.0191463   566299.31
  16872.188  -1.0730482   10.787928   1.0184806   565685.37
  16877.477  -1.0748574   10.796869   1.0178793   565665.37
  16882.768  -1.0766243   10.798953   1.0172322   564101.37
  16888.441  -1.0784925   10.806617   1.0165273   564796.25
  16893.740  -1.0802493   10.813043   1.0159227   564209.12
  16899.041  -1.0819524   10.816919   1.0153204   563644.87
  16904.727  -1.0838195    10.82312   1.0146073   562224.56
  16910.416  -1.0856199   10.829686   1.0139721   562151.25
  16915.729  -1.0873428   10.832382   1.0133092   560829.81
  16921.424  -1.0891861   10.839465   1.0126045   560492.31
  16926.744  -1.0908596    10.84545   1.0120488   560657.81
  16932.447  -1.0927888   10.849866   1.0113863   559428.19
  16938.154  -1.0946355   10.858055    1.010747    558394.5
  16943.865   -1.096507    10.86186   1.0100439   557780.81
