# XDI/1.0 EXAFS Data Collector 1.1 AD.RGN
# Column.1: energy eV
# Column.2: mutrans
# Column.3: murefer
# Column.4: i0
# Beamline.name: SSRL 4-3
# Detector.I0: N2 15cm
# Detector.I1: N2+Ar 30cm
# Detector.If: Ar   (Lytle detector, using Rb Filter)
# Detector.I2: Ar
# Element.edge: K
# Element.symbol: Sr
# Mono.d_spacing: 1.920128
# Mono.name: Si(220)
# Mono.notes: (?) unfocussed, detuned 50%, clockwise at E=17000eV
# Sample.formula: SrSO4
# Sample.name: strontium sulfate
# Sample.prep: powder
# Sample.reference: SrCO3
# Sample.temperature: 10K
# Scan.start_time: 1995-06-16 08:48:56
# ///
#    Note: mono d_spacing is nominal!
#-------------
#   energy   mutrans       murefer      i0
  15699.933 0.084301427  -1.1314482    125417.7
  15710.044 0.082915026  -1.1330788    124549.7
  15719.844 0.081466032  -1.1344427    123964.7
  15729.982 0.079975077  -1.1359285    123463.7
  15740.136 0.078532685  -1.1374813    122543.7
  15749.973 0.077169147  -1.1388227    121891.7
  15760.152 0.075624862  -1.1403499    119631.7
  15770.016  0.07426994  -1.1418501    120307.7
  15779.891 0.072851787  -1.1431568    120172.7
  15790.109 0.071375948  -1.1447213    119519.7
  15800.011 0.069980235  -1.1460762    118830.7
  15809.925  0.06851284  -1.1475279    118297.7
  15819.854  0.06709871  -1.1489727    117701.7
  15830.124 0.065626501  -1.1505114    116995.7
  15840.076 0.064236434   -1.151916    116439.7
  15850.042 0.062816148  -1.1534064    115736.7
  15860.021 0.061406171  -1.1547596    115104.7
  15870.012 0.060019926  -1.1562184    114506.7
  15880.018 0.058596935  -1.1576742    113813.7
  15890.033 0.057198586   -1.159068    113187.7
  15900.063 0.055766417  -1.1605118    112527.7
  15910.108 0.054369814  -1.1618902    111974.7
  15920.164 0.052985254  -1.1634001    111372.7
  15929.896 0.051661936  -1.1648795    110853.7
  15939.978 0.050216835  -1.1663249    110082.7
  15950.073 0.048843979   -1.167736    109449.7
  15959.844 0.047570705  -1.1691729    108842.7
  15969.964  0.04617364  -1.1705715    108135.7
  15980.097 0.044800425  -1.1720451    107676.7
  15989.906 0.043525864  -1.1735198    106932.7
  16000.064 0.042192569  -1.1748956    106317.7
  16009.897 0.040970092  -1.1763217    105736.7
  16020.082 0.039646187  -1.1777534    105156.7
  16029.942 0.038462354  -1.1792238    104380.7
  16040.152 0.037230165  -1.1806505    103801.7
  16050.036 0.036138548  -1.1819811    103244.7
  16059.933 0.035047414  -1.1834064    102655.7
  16069.841 0.034166519  -1.1847247    101951.7
  16080.104 0.033355358  -1.1862689    101218.7
  16090.039 0.032997126  -1.1876365    100635.7
  16099.984 0.033105402  -1.1890214    100127.7
  16109.943 0.034496238   -1.190344   99548.703
  16119.917 0.039375387  -1.1917227   98872.703
  16121.293 0.040460117  -1.1919686   98795.703
  16122.670 0.041754376  -1.1920098   98753.703
  16123.702 0.042907612  -1.1921212   98630.703
  16125.079 0.044982853  -1.1922849   98519.703
  16126.112 0.046839896  -1.1925283   98459.703
  16127.490 0.050001597   -1.192567   98529.703
  16128.867 0.054196493  -1.1928432   98333.703
  16129.901 0.058280173  -1.1928843   98340.703
  16131.278  0.06635616  -1.1929729   98212.703
  16132.657 0.079089712  -1.1931164   98082.703
  16133.690 0.092791873  -1.1930612   98045.703
  16135.069  0.12019036  -1.1929149   98089.703
  16136.104  0.14838842  -1.1929472   97919.703
  16137.483  0.20723757  -1.1924971   97831.703
  16138.861  0.29654935  -1.1925419   97729.703
  16139.897  0.37567241  -1.1926445   97784.703
  16141.276  0.49552737  -1.1924464   97710.703
  16142.657   0.6301902  -1.1924789   97500.703
  16143.692  0.72961351  -1.1925903   97524.703
  16145.073  0.82922332   -1.193389   97452.703
  16146.108   0.8527675  -1.1940886   97329.703
  16147.490  0.80523591  -1.1946543   97187.703
  16148.871  0.69331514  -1.1947198   97086.703
  16149.907  0.60887252  -1.1948381   97087.703
  16151.289  0.51612813  -1.1947404   97073.703
  16152.670  0.45831783   -1.194918   96918.703
  16153.707  0.43723654  -1.1949829   96824.703
  16155.090  0.43320665  -1.1950501   193430.41
  16155.779  0.43788179  -1.1951914   193351.36
  16156.473  0.44567947  -1.1953156   193214.25
  16157.162  0.45496344  -1.1954711   193295.05
  16157.854  0.46408326  -1.1955911   193180.78
  16158.547  0.47150784  -1.1957752   193195.44
  16159.237  0.47647833  -1.1958888   193420.02
  16160.274  0.47920778  -1.1960278   193300.52
  16160.968  0.47831579  -1.1961739   193475.94
  16161.659  0.47610444  -1.1962441    193532.3
  16162.695  0.47150438  -1.1963335   193564.56
  16163.389  0.46897157  -1.1964326   193639.75
  16164.426  0.46628734  -1.1965839   193683.87
  16165.465  0.46628313   -1.196602   193995.91
  16166.157  0.46793552  -1.1966544   194016.87
  16167.195  0.47387786   -1.196736   194172.77
  16168.234  0.48364687  -1.1968332   194064.58
  16169.271    0.496515  -1.1969695   193433.31
  16170.311  0.51209753  -1.1972492   193533.97
  16171.349  0.52886935  -1.1973336   194110.55
  16172.388  0.54697892  -1.1973408   194395.05
  16173.428  0.56547985  -1.1975142   195132.47
  16174.466  0.58363154  -1.1976829   196126.83
  16175.506  0.59923543  -1.1978514   196991.09
  16176.545  0.61089067  -1.1980165    197334.3
  16177.932  0.61462699  -1.1983799   197689.41
  16178.971  0.60637688  -1.1984942   197760.45
  16180.012  0.58930807  -1.1986458   198416.42
  16181.399  0.55854589  -1.1987682   198902.31
  16182.440  0.53648342  -1.1987914   199412.12
  16183.826  0.51320521  -1.1988846   199730.86
  16185.214  0.50254035  -1.1989613   200040.52
  16186.254  0.50306526  -1.1990786   200660.09
  16187.644  0.51383867  -1.1992744   201255.61
  16189.030  0.53232741   -1.199457   201556.03
  16190.419  0.55224621  -1.1998365   202138.39
  16191.809  0.56622204  -1.2001229   202865.66
  16193.197  0.56807272  -1.2004007   203385.86
  16194.587  0.55711506  -1.2006638   203968.98
  16195.976   0.5372394  -1.2008737   204693.03
  16197.366  0.51443749  -1.2010437      205198
  16198.755  0.49380602  -1.2011255   205858.89
  16200.493  0.47500982  -1.2013473    206546.7
  16201.884  0.46687315  -1.2015123   207438.44
  16203.274  0.46238079  -1.2016642   208078.09
  16205.013  0.45852942  -1.2020091   208901.69
  16206.405  0.45543989  -1.2022015   209877.19
  16208.145  0.45181898  -1.2023454   210413.62
  16209.884  0.45159015  -1.2025444   211323.97
  16211.276  0.45591081  -1.2027207   211996.25
  16213.016  0.46868371  -1.2029458   212957.45
  16214.757  0.48760545  -1.2031672   213737.58
  16216.499    0.507575  -1.2034085   214566.62
  16218.240  0.52461263  -1.2037565   215414.59
  16219.981  0.53634004  -1.2039822   216264.48
  16221.725   0.5426388  -1.2042436    217121.3
  16223.468  0.54441046  -1.2044253   217897.05
  16225.210  0.54422639  -1.2047223    218638.7
  16226.954  0.54529201  -1.2049267    219585.3
  16228.698  0.54887561  -1.2051452    220604.8
  16230.792  0.55251261  -1.2054585   221397.23
  16232.535  0.55005592  -1.2056832   221986.59
  16234.281  0.54049136  -1.2059569   222591.87
  16236.376   0.5231382  -1.2062257   222718.08
  16238.122  0.50875296  -1.2064291    223559.2
  16240.217  0.49472768  -1.2067611   224244.25
  16242.313  0.48463204  -1.2072217   225083.22
  16244.061  0.47831366  -1.2074745   226213.12
  16246.159  0.47274729  -1.2075067   227923.94
  16248.257  0.46909806  -1.2078123   229892.67
  16250.354   0.4658702  -1.2081143   232209.34
  16252.454  0.46180218  -1.2084288   234106.94
  16254.553  0.45778069  -1.2086944   236040.44
  16256.653  0.45631589  -1.2089531   237275.87
  16258.753  0.45886753   -1.209321   238818.23
  16260.855  0.46438288  -1.2096426   239721.52
  16262.957  0.46980565  -1.2098987   240558.72
  16265.059  0.47437459  -1.2101562   241522.86
  16267.162  0.47931953  -1.2104281   242258.91
  16269.616  0.48765637  -1.2108018   242909.87
  16271.719  0.49628284  -1.2111932   243948.78
  16274.174  0.50582041  -1.2116269   245167.59
  16276.280  0.51154053  -1.2118917   246689.34
  16278.736  0.51673598  -1.2122326   248397.02
  16280.844  0.51993034  -1.2124204   250308.59
  16283.301  0.51926901  -1.2127887   252128.11
  16285.760  0.51183379  -1.2131457   253453.55
  16288.220  0.49990678  -1.2135066   255131.91
  16290.328  0.48869524  -1.2138236    256395.2
  16292.790  0.47595307  -1.2140625   257988.41
  16295.252  0.46608488  -1.2144128   259126.53
  16297.715  0.46123016  -1.2147704   260776.59
  16300.179  0.46116648  -1.2150828   262286.56
  16302.994  0.46336024   -1.215482   263300.47
  16305.459  0.46533157  -1.2158134   264776.28
  16307.925  0.46827912  -1.2161499   266175.03
  16310.392  0.47306667  -1.2164538   267762.69
  16313.211   0.4792177  -1.2168438   269071.28
  16315.680  0.48232323  -1.2172138   270716.81
  16318.148  0.48077788   -1.217563   272073.25
  16320.972  0.47298936  -1.2179591   273531.62
  16323.442  0.46503409  -1.2182222   275334.91
  16326.268  0.46012427  -1.2184613   276510.09
  16329.092  0.46223017  -1.2188209   278196.25
  16331.564  0.46797995  -1.2191452   279760.28
  16334.393  0.47452676  -1.2196004   280972.28
  16337.221  0.47815101  -1.2199808   282408.19
  16340.050  0.47942393  -1.2203843      283877
  16342.881   0.4811012  -1.2208374   285661.75
  16345.713  0.48438376  -1.2212699   287241.44
  16348.544  0.48743594  -1.2216316   288822.03
  16351.378  0.48698465  -1.2220639   290456.53
  16354.211  0.48167262  -1.2224693   292040.97
  16357.047   0.4731502  -1.2228838   293699.34
  16360.238  0.46265269  -1.2233164   295424.62
  16363.076  0.45379903  -1.2237106   296888.84
  16365.914   0.4470974  -1.2240708   298397.97
  16369.107  0.44520304  -1.2245424   299878.03
  16371.948  0.44846406  -1.2249444      301462
  16375.146  0.45448961  -1.2253574   302938.91
  16377.989  0.45881328   -1.225793   304806.75
  16381.188  0.46083881  -1.2262643    306491.5
  16384.389  0.46053868  -1.2267516   308255.16
  16387.234  0.46104163  -1.2271132   310120.78
  16390.438  0.46446279   -1.227559   311789.28
  16393.641  0.46880685  -1.2280138   313075.72
  16396.848  0.47017323   -1.228469   314844.09
  16400.055  0.46749028  -1.2289143   316679.37
  16403.262  0.46234503  -1.2293527   318441.59
  16406.471  0.45753744  -1.2298285   320340.75
  16409.684  0.45359751  -1.2302994   321958.81
  16412.895  0.45055869  -1.2307409   323657.78
  16416.107  0.44940516  -1.2311844   325383.69
  16419.320    0.450502  -1.2316272   327002.53
  16422.895  0.45306352  -1.2321357   328571.28
  16426.111  0.45404851  -1.2325314   330546.94
  16429.332  0.45159632  -1.2329928   332781.56
  16432.908  0.44483128  -1.2334877   333811.06
  16436.129  0.43828893  -1.2339559   335690.53
  16439.711  0.43479912  -1.2344307   337535.87
  16443.291  0.43508863  -1.2349641   339158.19
  16446.518  0.43553792  -1.2354275   340721.41
  16450.104  0.43706564  -1.2358793   342602.53
  16453.689  0.44251513  -1.2363944   344464.59
  16457.277  0.45119618  -1.2368837   345956.59
  16460.510  0.45978168  -1.2373407    347573.5
  16464.100  0.46644137  -1.2378058   349284.31
  16467.695  0.46542912  -1.2383757   351099.06
  16471.289  0.45689154  -1.2388911   352973.75
  16474.885  0.44568609  -1.2394255   354734.34
  16478.842   0.4348204  -1.2400056   356566.87
  16482.441  0.42907185  -1.2405131   358132.31
  16486.043  0.42777567  -1.2410039   359516.69
  16489.646  0.42853116  -1.2415426      360958
  16493.611  0.42897351  -1.2420774   362610.22
  16497.217  0.42876974  -1.2425445   364349.34
  16500.826  0.42892702  -1.2430565   365877.41
  16504.797  0.43138713  -1.2436176   367275.41
  16508.406  0.43406773  -1.2440888   369506.31
  16512.381   0.4345668  -1.2446723   370876.16
  16516.357  0.43276497  -1.2452306   372718.91
  16519.975  0.43099882  -1.2457361   374765.59
  16523.953  0.42923862  -1.2462206   376428.19
  16527.936  0.42799917  -1.2467742   377904.72
  16531.920  0.42774671  -1.2473348   379506.16
  16535.906  0.42928993  -1.2478939   381447.53
  16539.531  0.43171921  -1.2483435   383716.84
  16543.520  0.43230185  -1.2489136   384976.06
  16547.875  0.43119005  -1.2495337   386529.19
  16551.867  0.42993519  -1.2500702   387878.28
  16555.863  0.42738698  -1.2506185   389206.25
  16559.861  0.42488609  -1.2512003   390924.16
  16563.859  0.42282492  -1.2517354      393086
  16567.863  0.42024196  -1.2522608   394738.75
  16572.230  0.41764339  -1.2528799   396073.44
  16576.234  0.41476637  -1.2534377   397910.06
  16580.607  0.41079232   -1.254041   398932.59
  16584.617  0.40877447  -1.2545997   400811.03
  16588.992  0.40938619  -1.2551736   402311.41
  16593.008  0.41226362  -1.2556539   403457.72
  16597.387  0.41550463  -1.2562962   405014.94
  16601.406  0.41685796  -1.2568304   406465.06
  16605.793  0.41649694  -1.2573871   407638.16
  16610.182  0.41515486  -1.2580034   408844.12
  16614.570  0.41441842  -1.2586156   410762.06
  16618.963  0.41361907  -1.2592117   412210.87
  16622.992  0.41258201  -1.2597542   413206.66
  16627.389  0.41157117  -1.2603308   415131.34
  16631.789  0.40823807  -1.2609337   416151.94
  16636.191  0.40406381  -1.2614892   418113.47
  16640.963  0.40015525  -1.2621538   419604.94
  16645.369  0.39815418  -1.2627391   420856.31
  16649.779  0.39952961  -1.2633055   422848.59
  16654.189  0.40332091  -1.2639354   423910.84
  16658.604  0.40719862  -1.2644769   425200.97
  16663.389  0.40813157  -1.2651668   426167.06
  16667.809  0.40468442  -1.2657214   427982.03
  16672.598  0.39985102  -1.2663676   428752.97
  16677.021  0.39629544  -1.2669325   430902.81
  16681.818  0.39386223  -1.2675499   431258.56
  16686.246  0.39215471  -1.2681021   432709.25
  16691.047  0.39000608  -1.2687193   433691.87
  16695.480  0.38927617  -1.2692973   435555.41
  16700.287  0.39098607  -1.2699083   436674.84
  16705.096  0.39414464   -1.270565   437479.22
  16709.908  0.39583181  -1.2711395   438391.53
  16714.723  0.39498166  -1.2718122   438631.75
  16719.170  0.39232767  -1.2723615   441052.91
  16723.990   0.3886632  -1.2730328   442608.97
  16728.813  0.38606863  -1.2735989   443863.97
  16733.639  0.38433073  -1.2742141   445161.91
  16738.840  0.38304527   -1.274885   445473.75
  16743.670  0.38325308  -1.2754774    446812.5
  16748.506  0.38294446  -1.2761206   447816.19
  16753.342  0.38260229  -1.2767448   448881.81
  16758.182  0.38235234  -1.2773618   449995.34
  16763.396  0.38247478   -1.278071   450607.81
  16768.244  0.38255574  -1.2786499   451716.19
  16773.094  0.38032546  -1.2792907    452693.5
  16778.318  0.37711799  -1.2799571   453283.72
  16783.174  0.37498229  -1.2805881   454747.87
  16788.404  0.37345786  -1.2812309   455164.94
  16793.641  0.37264465  -1.2819015   455926.94
  16798.504  0.37149653  -1.2825184   457460.87
  16803.746  0.36969965   -1.283191   457889.72
  16808.990  0.36828555  -1.2837587   458554.47
  16813.863  0.36891414   -1.284297   459221.16
  16819.115  0.37107374  -1.2849888   458156.78
  16824.369  0.37145472  -1.2856326   463615.31
  16829.627  0.36931368   -1.286317   463428.78
  16834.887  0.36634023  -1.2869644   464064.16
  16840.152  0.36479175  -1.2876065   465119.47
  16845.420  0.36517211  -1.2882695   466100.72
  16850.691  0.36557809  -1.2889294   466275.84
  16855.965  0.36407584  -1.2896053   466905.94
  16861.244  0.36076989  -1.2902311   467619.94
  16866.525  0.35792749  -1.2909181   468137.87
  16872.188  0.35594081  -1.2915802   468754.72
  16877.477  0.35552765  -1.2922385   469605.47
  16882.768  0.35576225  -1.2929187   470172.16
  16888.441  0.35474662  -1.2936815   470026.78
  16893.740  0.35350647  -1.2944026   470419.31
  16899.041  0.35334259  -1.2950557   471527.78
  16904.727  0.35294767  -1.2957468   472303.19
  16910.416  0.35224719  -1.2964078    472425.5
  16915.729  0.35108885  -1.2970928   472721.72
  16921.424  0.34975197  -1.2977982   474025.87
  16926.744  0.34836007  -1.2984336   474678.97
  16932.447  0.34665065  -1.2991574   474548.97
  16938.154  0.34499179   -1.299872   474883.87
  16943.865  0.34433097  -1.3006225   475501.72
  16949.582  0.34397972  -1.3013532    476082.5
  16955.301  0.34383075  -1.3020043   476546.19
  16960.643  0.34412263  -1.3027037   477428.81
  16966.371  0.34322982  -1.3034208   477108.37
  16972.100  0.34103254  -1.3041383   477326.81
  16977.836  0.33808623  -1.3048584   477630.22
  16983.957  0.33516331  -1.3056164   477874.53
  16989.699   0.3332592  -1.3063038   477750.75
  16995.447  0.33191188  -1.3070169   478182.91
  17001.197  0.33157851  -1.3077231      479522
