# XDI/1.0
# Column.1: energy eV
# Column.2: i0
# Column.3: itrans
# Column.4: irefer
# Beamline.name: SSRL 4-3
# Detector.I0: N2 15cm
# Detector.I1: N2 30cm
# Detector.I2: N2 15cm
# Element.edge: K
# Element.symbol: Mn
# Mono.d_spacing: 1.92009
# Mono.name: Si(220)
# Mono.notes: unfocused, detuned 10%
# Sample.formula: Mn2O3
# Sample.name: Mn2O3
# Sample.prep: powder, mixed with B(OH)3
# Sample.reference: Mn filter
# Sample.temperature: room temperature
# Scan.start_time: 1995-06-20 04:07:07
# ///
#    Note: mono d_spacing is nominal!
#     217  E XMU I0
#-------------
#   energy   i0   itrans  irefer
    6520.0030  30732.500000  28067.301092  14136.000022
    6521.0010  30725.500000  28078.300918  14136.999927
    6522.0000  30714.500000  28063.300923  14101.999640
    6523.0000  30702.500000  28058.301014  14079.999631
    6523.9990  30702.500000  28051.301060  14045.999393
    6524.9990  30691.500000  28043.301095  14024.000500
    6525.9990  30689.500000  28014.300909  13956.999330
    6527.0000  30666.500000  27974.300896  13893.999601
    6528.0000  30666.500000  27978.300948  13873.000534
    6529.0020  30653.500000  27939.301077  13809.999599
    6530.0030  30659.500000  27969.300988  13824.000046
    6531.0060  30649.500000  27938.300886  13763.999327
    6532.0080  30635.500000  27909.301134  13710.999683
    6533.0110  30627.500000  27889.300989  13668.000054
    6534.0140  30622.500000  27875.301138  13631.999493
    6535.0170  30623.500000  27850.301107  13568.999985
    6535.3180  30626.500000  27859.300971  13572.000412
    6535.6690  30627.500000  27845.301038  13537.999758
    6536.0210  30604.500000  27794.300925  13482.000466
    6536.3220  30600.500000  27767.301092  13443.999984
    6536.6740  30593.500000  27727.301128  13389.000720
    6537.0250  30583.500000  27700.300952  13352.999989
    6537.3270  30592.500000  27719.301092  13362.999560
    6537.6780  30594.500000  27682.300954  13317.999341
    6537.9790  30585.500000  27603.300266  13220.999549
    6538.3310  30579.500000  27530.300923  13142.999373
    6538.6830  30579.500000  27405.300670  12989.000057
    6538.9840  30579.500000  27298.300563  12865.000052
    6539.3360  30577.500000  27157.301562  12694.000044
    6539.6880  30575.500000  26989.301174  12487.000394
    6539.9900  30574.500000  26876.301904  12354.999861
    6540.3410  30563.500000  26758.302166  12241.000165
    6540.6430  30563.500000  26729.301190  12241.000165
    6540.9950  30555.500000  26640.299874  12184.998965
    6541.3470  30560.500000  26600.300838  12174.999470
    6541.6490  30563.500000  26538.300370  12119.000213
    6542.0010  30565.500000  26482.300970  12063.000064
    6542.3530  30562.500000  26378.301709  11922.000411
    6542.6550  30552.500000  26287.302169  11788.000595
    6543.0070  30560.500000  26232.301299  11650.000529
    6543.3090  30546.500000  26158.301910  11501.000284
    6543.6620  30539.500000  26061.301886  11263.000120
    6544.0140  30541.500000  26012.300297  11076.000102
    6544.3160  30543.500000  25977.300449  10911.999955
    6544.6680  30523.500000  25807.302093  10590.999946
    6545.0210  30520.500000  25709.299867  10385.999414
    6545.3230  30524.500000  25603.299755  10203.999383
    6545.6760  30524.500000  25424.300769  9997.999669
    6545.9780  30514.500000  25200.302048  9794.000266
    6546.3310  30509.500000  24869.299987  9552.999706
    6546.6830  30514.500000  24526.301700  9384.000649
    6546.9860  30508.500000  24133.300092  9204.999251
    6547.3380  30502.500000  23639.301565  9029.000254
    6547.6910  30501.500000  23105.300792  8861.000334
    6547.9940  30502.500000  22706.300646  8807.999542
    6548.3470  30508.500000  22205.300759  8694.000006
    6548.6490  30490.500000  21810.300532  8644.000182
    6549.0020  30487.500000  21309.301415  8513.999967
    6549.3550  30493.500000  20887.300572  8471.999473
    6549.6580  30479.500000  20494.300569  8413.999506
    6550.0110  30479.500000  19996.301401  8298.000038
    6550.3140  30474.500000  19665.300139  8304.999379
    6550.6670  30479.500000  19223.300798  8220.999756
    6551.0200  30472.500000  18844.301068  8199.000344
    6551.3230  30477.500000  18549.301001  8181.999893
    6551.6760  30470.500000  18156.301716  8124.000477
    6551.9790  30468.500000  17858.301373  8117.000286
    6552.3330  30451.500000  17420.301066  8032.999975
    6552.6870  30450.500000  17044.301319  8025.000364
    6552.9890  30446.500000  16697.300256  7983.999250
    6553.3430  30445.500000  16312.299601  7970.999558
    6553.6460  30451.500000  16033.300715  7992.000101
    6554.0000  30454.500000  15673.300608  7956.000044
    6554.3530  30443.500000  15352.300103  7933.999878
    6554.6560  30450.500000  15129.299294  7927.999345
    6555.0100  30446.500000  14871.299465  7898.999809
    6555.3130  30446.500000  14690.300485  7873.000479
    6555.6670  30445.500000  14523.300634  7867.000036
    6556.0210  30442.500000  14378.300472  7850.000209
    6556.3240  30438.500000  14274.300527  7824.000170
    6556.6780  30432.500000  14188.300496  7819.000369
    6556.9820  30422.500000  14104.299306  7780.999234
    6557.3360  30419.500000  14050.300032  7762.999943
    6557.6900  30425.500000  14025.300435  7776.000042
    6557.9930  30417.500000  13974.299613  7744.999433
    6558.3480  30412.500000  13918.299820  7709.000236
    6558.6510  30421.500000  13938.300677  7748.000385
    6559.0050  30410.500000  13909.299476  7726.999649
    6559.3090  30397.500000  13881.299411  7679.999394
    6559.6630  30392.500000  13923.299606  7686.999824
    6560.0180  30395.500000  13969.300091  7669.000325
    6560.3220  30388.500000  14049.299647  7690.999487
    6560.6760  30382.500000  14088.300269  7634.000232
    6560.9790  30381.500000  14159.300262  7626.000069
    6561.3340  30380.500000  14253.299948  7635.000126
    6561.6880  30386.500000  14335.300056  7639.000201
    6561.9930  30381.500000  14394.299650  7652.999562
    6562.3470  30369.500000  14389.300583  7591.000609
    6562.6520  30365.500000  14422.299650  7593.999497
    6563.0060  30361.500000  14429.299955  7569.999932
    6563.3110  30364.500000  14464.300265  7588.000082
    6563.6650  30364.500000  14474.299998  7571.000029
    6564.0200  30352.500000  14461.299574  7531.999817
    6564.3240  30349.500000  14501.300614  7557.000430
    6564.6790  30348.500000  14493.300279  7503.999859
    6564.9830  30357.500000  14572.300548  7563.000507
    6565.3390  30362.500000  14583.299357  7522.999998
    6565.6430  30358.500000  14622.299759  7527.999563
    6565.9980  30354.500000  14642.299658  7494.999589
    6566.3540  30345.500000  14657.300461  7456.000440
    6566.6580  30343.500000  14724.300535  7487.000324
    6567.0130  30342.500000  14736.300477  7445.000029
    6567.3170  30342.500000  14793.299918  7468.999616
    6567.6730  30340.500000  14816.300409  7440.000036
    6567.9770  30341.500000  14865.299621  7461.999534
    6568.3330  30315.500000  14811.300443  7361.000293
    6568.6880  30328.500000  14861.300681  7384.000497
    6568.9930  30330.500000  14910.299368  7418.999478
    6569.3490  30321.500000  14891.299733  7370.999629
    6569.6540  30314.500000  14936.299315  7408.999766
    6570.0090  30314.500000  14900.299984  7343.999946
    6570.3140  30299.500000  14890.300245  7327.000407
    6570.6700  30308.500000  14899.299542  7327.999808
    6571.0250  30299.500000  14881.300291  7307.000131
    6571.3300  30291.500000  14865.300107  7287.000047
    6571.6870  30287.500000  14837.300084  7257.999836
    6571.9910  30298.500000  14884.300598  7315.000526
    6572.3470  30285.500000  14821.300219  7247.999865
    6572.6520  30282.500000  14835.300177  7276.999989
    6573.0080  30276.500000  14796.299771  7225.000000
    6573.3130  30261.500000  14789.300461  7226.000324
    6573.6690  30264.500000  14779.299340  7203.999864
    6573.9750  30252.500000  14767.300721  7181.000550
    6574.3310  30261.500000  14779.300361  7171.000449
    6574.6870  30260.500000  14819.300688  7189.000372
    6574.9930  30241.500000  14819.299525  7169.999990
    6575.3490  30249.500000  14840.300033  7145.000315
    6575.6540  30241.500000  14898.300607  7174.999940
    6576.0110  30248.500000  14917.299750  7136.000009
    6576.3160  30251.500000  14969.300492  7150.000095
    6576.6730  30244.500000  14992.300207  7107.000255
    6576.9780  30245.500000  15052.300145  7119.999912
    6577.3350  30241.500000  15091.300519  7089.000471
    6577.6910  30239.500000  15154.299950  7082.999788
    6577.9970  30228.500000  15197.300114  7076.000083
    6578.3540  30234.500000  15240.300326  7045.999835
    6578.6600  30230.500000  15322.299463  7081.000056
    6579.0160  30234.500000  15361.299952  7043.999759
    6579.3220  30231.500000  15423.299601  7048.999749
    6579.6790  30222.500000  15447.300762  7003.000360
    6579.9850  30226.500000  15540.299585  7048.999720
    6580.7500  30220.500000  15663.300089  7030.999710
    6581.5150  30208.500000  15755.300396  6987.000434
    6582.2800  30197.500000  15880.299876  6996.999676
    6583.0460  30185.500000  15931.300781  6929.000513
    6583.8120  30176.500000  16033.299460  6937.999495
    6584.5260  30167.500000  16079.299284  6905.999910
    6585.2920  30162.500000  16107.300734  6861.000187
    6586.0590  30148.500000  16130.299675  6829.999980
    6586.8250  30143.500000  16131.300438  6786.000304
    6587.5920  30149.500000  16192.300303  6819.000039
    6588.3590  30135.500000  16163.300624  6762.000504
    6589.0750  30126.500000  16176.299596  6765.000145
    6589.8420  30119.500000  16142.300755  6714.000027
    6590.6100  30117.500000  16142.300684  6717.000483
    6591.3770  30105.500000  16089.300395  6671.000037
    6592.1460  30096.500000  16026.299410  6627.999910
    6592.8630  30091.500000  16001.299535  6644.999652
    6593.6310  30083.500000  15918.299330  6608.999948
    6594.3990  30083.500000  15843.299219  6595.999631
    6595.1680  30065.500000  15716.300702  6541.000497
    6595.8860  30061.500000  15622.300040  6522.000039
    6596.6550  30049.500000  15521.300742  6503.000085
    6597.4240  30046.500000  15413.300132  6463.999744
    6598.1940  30022.500000  15289.299438  6402.999808
    6598.9640  30018.500000  15205.300106  6371.999785
    6599.6830  30004.500000  15139.299373  6358.999607
    6600.4530  29998.500000  15074.299599  6344.999868
    6601.2230  29984.500000  14975.300064  6290.000068
    6601.9940  29994.500000  14961.299467  6324.000077
    6602.7130  29985.500000  14887.300461  6280.000320
    6603.4840  29969.500000  14835.300324  6253.000308
    6604.2550  29960.500000  14794.299645  6228.999633
    6604.9760  29955.500000  14781.299686  6225.999845
    6605.7470  29953.500000  14768.299814  6213.999802
    6606.5190  29945.500000  14709.300236  6143.000250
    6607.2910  29949.500000  14773.300480  6205.000070
    6608.0120  29940.500000  14743.300540  6155.000119
    6608.7850  29925.500000  14723.299805  6118.000086
    6609.5570  29911.500000  14701.299950  6071.999889
    6610.2780  29906.500000  14717.299640  6065.999629
    6611.0510  29903.500000  14730.300494  6052.000209
    6611.8250  29892.500000  14741.300509  6037.000078
    6612.5980  29858.500000  14718.300573  5987.999939
    6613.3200  29851.500000  14713.300636  5949.000307
    6614.0940  29842.500000  14730.299339  5940.999897
    6614.8680  29838.500000  14738.299385  5916.999658
    6615.5910  29832.500000  14771.299916  5929.999942
    6616.3650  29821.500000  14760.299494  5884.000042
    6617.1410  29814.500000  14766.299926  5863.000202
    6617.8630  29806.500000  14769.299830  5844.999974
    6618.6390  29794.500000  14752.300146  5804.999986
    6619.4140  29785.500000  14773.300007  5811.999722
    6620.1380  29762.500000  14729.300067  5743.999886
    6620.9140  29764.500000  14743.299497  5745.999699
    6621.6890  29754.500000  14720.299816  5706.999940
    6622.4140  29750.500000  14735.299453  5719.999618
    6623.1900  29733.500000  14689.300275  5669.000119
    6623.9150  29729.500000  14702.299628  5687.999581
    6624.6920  29708.500000  14642.300002  5630.999740
    6625.4690  29698.500000  14617.299718  5619.000154
    6626.1940  29682.500000  14575.300457  5589.000370
    6626.9720  29679.500000  14542.300405  5566.000048
    6627.7490  29665.500000  14513.299769  5553.000179
    6628.4750  29650.500000  14470.300228  5520.999919
    6629.2530  29635.500000  14450.299876  5513.999749
    6629.9790  29636.500000  14447.299478  5510.999531

