# XDI/1.0
# Column.1: energy eV
# Column.2: i0
# Column.3: itrans
# Column.4: irefer
# Beamline.name: SSRL 4-3
# Detector.I0: N2 15cm
# Detector.I1: N2 30cm
# Detector.I2: N2 15cm
# Element.edge: K
# Element.symbol: Mn
# Mono.d_spacing: 1.92009
# Mono.name: Si(220)
# Mono.notes: unfocused, detuned 10%
# Sample.formula: Mn2O3
# Sample.name: Mn2O3
# Sample.prep: powder, mixed with B(OH)3
# Sample.reference: Mn filter
# Sample.temperature: room temperature
# Scan.start_time: 1995-06-20 04:07:07
# ///
#    Note: mono d_spacing is nominal!
#     217  E XMU I0
#-------------
#   energy   i0   itrans  irefer
    6520.0030  31063.500000  28860.301102  15283.999341
    6521.0010  31061.500000  28892.301056  15300.999609
    6522.0000  31053.500000  28912.300964  15307.000051
    6523.0000  31041.500000  28890.300874  15264.000217
    6523.9990  31035.500000  28876.300898  15225.000106
    6524.9990  31025.500000  28884.300927  15221.999652
    6525.9990  31020.500000  28864.301122  15165.000532
    6527.0000  31017.500000  28887.301131  15175.000825
    6528.0000  31005.500000  28828.300996  15079.000463
    6529.0020  31000.500000  28829.300931  15056.999459
    6530.0030  30996.500000  28820.301007  15024.000187
    6531.0060  30992.500000  28796.300952  14971.000648
    6532.0080  30980.500000  28795.301006  14960.000625
    6533.0110  30962.500000  28723.300998  14843.000017
    6534.0140  30955.500000  28709.301069  14809.000670
    6535.0170  30952.500000  28692.301068  14760.000179
    6535.3180  30943.500000  28657.300886  14711.000407
    6535.6690  30948.500000  28683.300884  14732.000061
    6536.0210  30954.500000  28681.300915  14711.999810
    6536.3220  30946.500000  28679.301117  14714.999491
    6536.6740  30937.500000  28598.300996  14603.000340
    6537.0250  30923.500000  28583.300899  14587.000606
    6537.3270  30921.500000  28558.300941  14549.999290
    6537.6780  30918.500000  28502.300983  14469.999705
    6537.9790  30908.500000  28461.301059  14432.999359
    6538.3310  30899.500000  28330.301113  14268.999866
    6538.6830  30896.500000  28241.300941  14170.999377
    6538.9840  30888.500000  28112.300938  14019.999365
    6539.3360  30889.500000  27978.301137  13859.000128
    6539.6880  30890.500000  27829.301969  13665.999958
    6539.9900  30883.500000  27702.300512  13515.999890
    6540.3410  30883.500000  27612.300969  13426.999404
    6540.6430  30875.500000  27530.302006  13361.000983
    6540.9950  30873.500000  27490.299879  13357.999392
    6541.3470  30864.500000  27401.299962  13295.998910
    6541.6490  30860.500000  27345.302224  13256.000913
    6542.0010  30848.500000  27233.301024  13140.000181
    6542.3530  30853.500000  27163.299962  13038.999083
    6542.6550  30857.500000  27138.300498  12980.000277
    6543.0070  30845.500000  27004.301621  12747.999695
    6543.3090  30843.500000  26984.300427  12650.999593
    6543.6620  30844.500000  26898.301745  12424.000827
    6544.0140  30840.500000  26849.300307  12230.000142
    6544.3160  30831.500000  26772.300635  12028.000355
    6544.6680  30825.500000  26648.300288  11746.000146
    6545.0210  30821.500000  26547.301349  11536.000206
    6545.3230  30824.500000  26428.300598  11341.999759
    6545.6760  30827.500000  26239.301623  11107.999770
    6545.9780  30817.500000  26019.301043  10903.000324
    6546.3310  30805.500000  25677.300317  10642.000099
    6546.6830  30816.500000  25341.302153  10486.000280
    6546.9860  30803.500000  24941.301394  10290.999928
    6547.3380  30812.500000  24480.300963  10146.999559
    6547.6910  30807.500000  23937.301317  9969.999829
    6547.9940  30805.500000  23535.300558  9913.999463
    6548.3470  30816.500000  23044.300241  9819.999396
    6548.6490  30781.500000  22557.300486  9660.000115
    6549.0020  30792.500000  22114.299906  9599.999571
    6549.3550  30774.500000  21627.300420  9492.999431
    6549.6580  30777.500000  21266.300923  9469.999965
    6550.0110  30772.500000  20777.301858  9364.000790
    6550.3140  30766.500000  20420.300645  9353.999779
    6550.6670  30763.500000  19974.301499  9259.000656
    6551.0200  30764.500000  19605.301764  9245.000582
    6551.3230  30746.500000  19254.301044  9177.000117
    6551.6760  30756.500000  18914.300081  9177.999431
    6551.9790  30746.500000  18598.301636  9164.999866
    6552.3330  30748.500000  18181.300350  9086.999926
    6552.6870  30740.500000  17794.300394  9081.999734
    6552.9890  30741.500000  17459.301315  9048.999809
    6553.3430  30745.500000  17092.301237  9057.999972
    6553.6460  30739.500000  16769.300650  9032.999407
    6554.0000  30735.500000  16401.300629  8989.999909
    6554.3530  30731.500000  16089.300521  8980.000044
    6554.6560  30717.500000  15812.300104  8916.999622
    6555.0100  30722.500000  15591.300293  8931.000129
    6555.3130  30722.500000  15419.300211  8922.000432
    6555.6670  30704.500000  15184.300370  8836.000337
    6556.0210  30704.500000  15043.300215  8824.000368
    6556.3240  30705.500000  14966.299772  8836.000054
    6556.6780  30706.500000  14899.300396  8851.000102
    6556.9820  30692.500000  14804.300680  8799.000408
    6557.3360  30694.500000  14743.300636  8776.000548
    6557.6900  30691.500000  14696.299734  8763.000274
    6557.9930  30681.500000  14659.300304  8755.000012
    6558.3480  30678.500000  14603.299313  8709.999936
    6558.6510  30668.500000  14588.300461  8720.000273
    6559.0050  30674.500000  14551.299328  8673.999524
    6559.3090  30675.500000  14593.299578  8710.999961
    6559.6630  30653.500000  14550.300530  8613.000504
    6560.0180  30654.500000  14614.299549  8619.000016
    6560.3220  30656.500000  14710.299750  8656.999735
    6560.6760  30661.500000  14770.299825  8616.999997
    6560.9790  30644.500000  14818.299963  8590.999633
    6561.3340  30644.500000  14913.299533  8600.999358
    6561.6880  30647.500000  15003.300241  8616.000458
    6561.9930  30636.500000  15021.300221  8574.000346
    6562.3470  30628.500000  15074.300618  8587.000140
    6562.6520  30621.500000  15076.300034  8547.000277
    6563.0060  30612.500000  15076.300722  8517.000478
    6563.3110  30623.500000  15123.299806  8544.999757
    6563.6650  30613.500000  15112.300096  8505.999926
    6564.0200  30602.500000  15135.300622  8512.000616
    6564.3240  30601.500000  15123.300400  8468.000627
    6564.6790  30597.500000  15174.299983  8493.000097
    6564.9830  30588.500000  15179.299449  8460.999589
    6565.3390  30595.500000  15224.300058  8469.000012
    6565.6430  30584.500000  15242.299804  8444.000124
    6565.9980  30585.500000  15259.299805  8404.999778
    6566.3540  30581.500000  15302.300108  8400.000379
    6566.6580  30582.500000  15325.299884  8373.999852
    6567.0130  30580.500000  15378.300402  8379.000631
    6567.3170  30566.500000  15384.300448  8342.000352
    6567.6730  30569.500000  15414.300460  8326.000259
    6567.9770  30559.500000  15434.299961  8316.000274
    6568.3330  30566.500000  15475.300519  8317.999973
    6568.6880  30552.500000  15482.299681  8295.999539
    6568.9930  30550.500000  15498.300180  8285.000010
    6569.3490  30546.500000  15515.299673  8282.999927
    6569.6540  30536.500000  15485.300040  8222.999864
    6570.0090  30528.500000  15489.300164  8216.000007
    6570.3140  30530.500000  15508.300302  8228.000100
    6570.6700  30522.500000  15459.299267  8159.999572
    6571.0250  30518.500000  15460.300143  8164.000099
    6571.3300  30509.500000  15449.300242  8154.999792
    6571.6870  30518.500000  15479.300149  8193.999820
    6571.9910  30497.500000  15410.299939  8117.999956
    6572.3470  30500.500000  15405.299551  8114.000098
    6572.6520  30498.500000  15396.299712  8107.999785
    6573.0080  30485.500000  15357.300456  8060.000034
    6573.3130  30494.500000  15416.300744  8136.000657
    6573.6690  30491.500000  15358.300180  8053.999950
    6573.9750  30488.500000  15385.299311  8075.999700
    6574.3310  30481.500000  15350.300374  8008.000002
    6574.6870  30481.500000  15400.299268  8048.999856
    6574.9930  30468.500000  15403.299859  8019.999528
    6575.3490  30468.500000  15425.300686  8000.000171
    6575.6540  30462.500000  15458.300665  8004.000018
    6576.0110  30452.500000  15453.300306  7936.000179
    6576.3160  30446.500000  15508.299698  7951.999806
    6576.6730  30439.500000  15517.299636  7890.999507
    6576.9780  30431.500000  15567.299934  7895.000067
    6577.3350  30441.500000  15641.299330  7902.999801
    6577.6910  30441.500000  15704.300767  7905.000303
    6577.9970  30440.500000  15758.300757  7899.000706
    6578.3540  30428.500000  15772.300510  7834.999948
    6578.6600  30420.500000  15844.300144  7860.000132
    6579.0160  30420.500000  15870.299767  7804.999760
    6579.3220  30413.500000  15931.299381  7815.999797
    6579.6790  30419.500000  15998.299737  7810.999637
    6579.9850  30416.500000  16058.299590  7823.000091
    6580.7500  30392.500000  16145.299706  7763.000078
    6581.5150  30382.500000  16250.300238  7731.000498
    6582.2800  30381.500000  16382.299784  7742.999699
    6583.0460  30375.500000  16448.300560  7687.999929
    6583.8120  30370.500000  16535.300875  7676.999975
    6584.5260  30360.500000  16581.301112  7648.000349
    6585.2920  30344.500000  16630.300819  7637.000199
    6586.0590  30335.500000  16655.300996  7604.000146
    6586.8250  30320.500000  16660.301793  7567.000482
    6587.5920  30310.500000  16655.301716  7525.999962
    6588.3590  30299.500000  16647.301159  7489.000251
    6589.0750  30297.500000  16652.300930  7480.000066
    6589.8420  30287.500000  16602.300766  7409.999606
    6590.6100  30276.500000  16576.301155  7386.000130
    6591.3770  30274.500000  16546.301028  7360.000304
    6592.1460  30264.500000  16510.301319  7358.000381
    6592.8630  30254.500000  16435.301201  7310.000438
    6593.6310  30237.500000  16324.299685  7248.000052
    6594.3990  30237.500000  16247.300566  7232.000382
    6595.1680  30231.500000  16152.299560  7203.999999
    6595.8860  30221.500000  16038.299677  7164.999501
    6596.6550  30208.500000  15911.299890  7111.999598
    6597.4240  30206.500000  15827.300568  7108.000161
    6598.1940  30190.500000  15701.299904  7040.000248
    6598.9640  30184.500000  15654.300125  7058.000158
    6599.6830  30173.500000  15576.300427  7022.999849
    6600.4530  30166.500000  15497.300340  6989.000368
    6601.2230  30155.500000  15413.299302  6951.999581
    6601.9940  30153.500000  15350.299768  6929.999927
    6602.7130  30153.500000  15320.299331  6938.999520
    6603.4840  30140.500000  15234.300271  6869.999836
    6604.2550  30129.500000  15209.299626  6868.000104
    6604.9760  30113.500000  15160.300110  6821.999947
    6605.7470  30110.500000  15156.299409  6822.999934
    6606.5190  30095.500000  15099.299604  6755.999730
    6607.2910  30098.500000  15133.300346  6781.999952
    6608.0120  30082.500000  15124.299780  6762.000021
    6608.7850  30079.500000  15106.300019  6719.000287
    6609.5570  30059.500000  15080.299917  6673.999803
    6610.2780  30054.500000  15086.299290  6652.999464
    6611.0510  30053.500000  15110.299943  6653.000306
    6611.8250  30046.500000  15099.299947  6601.000191
    6612.5980  30043.500000  15128.299538  6600.999860
    6613.3200  30022.500000  15094.300173  6537.999949
    6614.0940  30024.500000  15113.299459  6521.999593
    6614.8680  30018.500000  15144.300526  6530.000098
    6615.5910  30000.500000  15128.299792  6479.999597
    6616.3650  29994.500000  15146.299300  6472.999689
    6617.1410  29979.500000  15135.299256  6427.999787
    6617.8630  29970.500000  15145.300178  6422.999783
    6618.6390  29956.500000  15117.300696  6364.000120
    6619.4140  29953.500000  15135.300231  6368.000195
    6620.1380  29946.500000  15140.299900  6359.000153
    6620.9140  29941.500000  15123.299653  6324.999642
    6621.6890  29927.500000  15121.300669  6311.000300
    6622.4140  29916.500000  15082.299952  6260.999693
    6623.1900  29899.500000  15063.300542  6237.000376
    6623.9150  29891.500000  15030.299931  6202.000238
    6624.6920  29902.500000  15038.300131  6211.999898
    6625.4690  29882.500000  14985.300063  6168.999843
    6626.1940  29871.500000  14954.299472  6150.999867
    6626.9720  29849.500000  14911.299620  6119.999956
    6627.7490  29849.500000  14871.300123  6090.000046
    6628.4750  29843.500000  14873.300022  6107.000039
    6629.2530  29829.500000  14823.299549  6059.999616
    6629.9790  29820.500000  14820.300206  6065.999801

