# XDI/1.0
# Column.1: energy eV
# Column.2: i0
# Column.3: itrans
# Column.4: irefer
# Beamline.name: SSRL 4-3
# Detector.I0: N2 15cm
# Detector.I1: N2 30cm
# Detector.I2: N2 15cm
# Element.edge: K
# Element.symbol: Mn
# Mono.d_spacing: 1.92009
# Mono.name: Si(220)
# Mono.notes: unfocused, detuned 10%
# Sample.formula: Mn2O3
# Sample.name: Mn2O3
# Sample.prep: powder, mixed with B(OH)3
# Sample.reference: Mn filter
# Sample.temperature: room temperature
# Scan.start_time: 1995-06-20 04:07:07
# ///
#    Note: mono d_spacing is nominal!
#     217  E XMU I0
#-------------
#   energy   i0   itrans  irefer
    6520.0030  30542.500000  27520.301159  13264.999585
    6521.0010  30542.500000  27539.302228  13267.000098
    6522.0000  30541.500000  27591.300244  13310.999380
    6523.0000  30524.500000  27525.301600  13210.000282
    6523.9990  30516.500000  27515.300202  13183.000002
    6524.9990  30526.500000  27566.301286  13212.999543
    6525.9990  30524.500000  27556.301523  13173.000785
    6527.0000  30503.500000  27503.300926  13104.000053
    6528.0000  30498.500000  27490.299640  13063.999300
    6529.0020  30495.500000  27523.300360  13088.999332
    6530.0030  30488.500000  27483.300436  13021.000320
    6531.0060  30475.500000  27452.300795  12966.000459
    6532.0080  30461.500000  27427.300643  12923.999266
    6533.0110  30452.500000  27406.302155  12875.000593
    6534.0140  30449.500000  27406.301636  12851.000570
    6535.0170  30445.500000  27357.299899  12768.999254
    6535.3180  30440.500000  27344.301667  12751.000749
    6535.6690  30446.500000  27338.299880  12726.000003
    6536.0210  30446.500000  27355.301386  12738.999884
    6536.3220  30432.500000  27328.300574  12710.000395
    6536.6740  30425.500000  27266.301777  12624.999968
    6537.0250  30421.500000  27255.299936  12610.999323
    6537.3270  30416.500000  27216.301791  12560.000795
    6537.6780  30416.500000  27183.300276  12510.999587
    6537.9790  30412.500000  27137.301162  12461.000513
    6538.3310  30414.500000  27076.301675  12386.000816
    6538.6830  30406.500000  26930.301470  12216.000408
    6538.9840  30401.500000  26858.301379  12140.999936
    6539.3360  30401.500000  26675.300152  11922.000197
    6539.6880  30398.500000  26517.300395  11728.000234
    6539.9900  30391.500000  26407.302033  11608.000563
    6540.3410  30385.500000  26281.301610  11481.000297
    6540.6430  30380.500000  26265.302071  11506.000193
    6540.9950  30378.500000  26170.301083  11436.000536
    6541.3470  30380.500000  26131.300671  11426.999761
    6541.6490  30370.500000  26060.301538  11377.999729
    6542.0010  30372.500000  25958.299725  11256.999284
    6542.3530  30367.500000  25880.299898  11153.999773
    6542.6550  30362.500000  25789.300441  11017.999948
    6543.0070  30361.500000  25733.302198  10890.999982
    6543.3090  30366.500000  25672.300962  10733.999499
    6543.6620  30366.500000  25625.302112  10571.000257
    6544.0140  30364.500000  25560.299907  10366.999778
    6544.3160  30350.500000  25485.301949  10175.000616
    6544.6680  30346.500000  25378.300290  9926.000123
    6545.0210  30346.500000  25272.301398  9707.000144
    6545.3230  30341.500000  25171.301404  9544.000263
    6545.6760  30340.500000  24956.301456  9292.000360
    6545.9780  30330.500000  24753.299837  9117.999317
    6546.3310  30334.500000  24424.300984  8872.002915
    6546.6830  30334.500000  24073.300870  8698.002300
    6546.9860  30323.500000  23692.302100  8529.998533
    6547.3380  30322.500000  23211.301907  8366.003666
    6547.6910  30317.500000  22694.300270  8219.002107
    6547.9940  30320.500000  22257.300149  8110.999078
    6548.3470  30315.500000  21764.300438  8024.999710
    6548.6490  30308.500000  21368.301834  7964.000120
    6549.0020  30310.500000  20921.300175  7900.999632
    6549.3550  30304.500000  20440.301513  7787.000309
    6549.6580  30290.500000  20069.300958  7755.000274
    6550.0110  30289.500000  19603.301929  7680.000543
    6550.3140  30282.500000  19226.301048  7630.000325
    6550.6670  30272.500000  18764.301525  7531.000561
    6551.0200  30278.500000  18405.300425  7519.999637
    6551.3230  30273.500000  18109.300433  7508.999559
    6551.6760  30272.500000  17721.301838  7453.000550
    6551.9790  30272.500000  17434.301385  7461.000419
    6552.3330  30274.500000  17037.300271  7414.999988
    6552.6870  30267.500000  16658.300648  7398.999805
    6552.9890  30258.500000  16313.300175  7362.000013
    6553.3430  30263.500000  15937.299874  7351.000055
    6553.6460  30262.500000  15631.300124  7339.999851
    6554.0000  30267.500000  15294.300300  7333.000150
    6554.3530  30253.500000  14960.299318  7294.999988
    6554.6560  30247.500000  14739.300599  7297.000231
    6555.0100  30252.500000  14491.299367  7272.999742
    6555.3130  30243.500000  14298.300519  7241.000485
    6555.6670  30237.500000  14112.300260  7213.999953
    6556.0210  30238.500000  13966.299469  7187.000061
    6556.3240  30242.500000  13932.300480  7251.000214
    6556.6780  30238.500000  13807.300126  7194.000012
    6556.9820  30231.500000  13748.300647  7184.000691
    6557.3360  30226.500000  13675.300508  7151.000114
    6557.6900  30230.500000  13651.299909  7163.999744
    6557.9930  30226.500000  13607.300131  7145.999739
    6558.3480  30220.500000  13562.300236  7121.000264
    6558.6510  30226.500000  13563.300099  7139.000090
    6559.0050  30222.500000  13527.300194  7102.000324
    6559.3090  30222.500000  13558.299650  7124.999672
    6559.6630  30214.500000  13556.299426  7077.999715
    6560.0180  30215.500000  13625.299715  7092.999685
    6560.3220  30216.500000  13681.299944  7078.999844
    6560.6760  30205.500000  13752.300607  7065.000077
    6560.9790  30208.500000  13843.299732  7078.999908
    6561.3340  30197.500000  13911.299722  7065.000165
    6561.6880  30193.500000  13963.300144  7036.000299
    6561.9930  30181.500000  14004.300400  7030.000338
    6562.3470  30180.500000  14032.300075  7002.999943
    6562.6520  30179.500000  14082.299948  7029.000265
    6563.0060  30172.500000  14097.300336  7014.000433
    6563.3110  30167.500000  14114.300256  7011.000293
    6563.6650  30170.500000  14132.299549  7004.000080
    6564.0200  30159.500000  14115.300696  6962.000525
    6564.3240  30160.500000  14161.300415  6990.000454
    6564.6790  30146.500000  14135.300217  6924.999849
    6564.9830  30150.500000  14179.299322  6938.999548
    6565.3390  30152.500000  14223.299623  6943.999730
    6565.6430  30155.500000  14264.300220  6945.000358
    6565.9980  30150.500000  14308.300262  6945.000212
    6566.3540  30147.500000  14315.300081  6894.000227
    6566.6580  30135.500000  14348.300151  6887.000015
    6567.0130  30150.500000  14419.300285  6908.999981
    6567.3170  30136.500000  14427.300240  6880.000067
    6567.6730  30134.500000  14462.300452  6872.000069
    6567.9770  30134.500000  14481.300476  6856.000093
    6568.3330  30123.500000  14491.300416  6831.000152
    6568.6880  30119.500000  14507.300457  6815.000255
    6568.9930  30107.500000  14531.299513  6824.999789
    6569.3490  30111.500000  14524.300723  6788.000076
    6569.6540  30115.500000  14565.300027  6818.000107
    6570.0090  30110.500000  14550.300526  6785.000372
    6570.3140  30090.500000  14536.300553  6767.000339
    6570.6700  30093.500000  14526.300029  6745.999764
    6571.0250  30084.500000  14537.300418  6759.000263
    6571.3300  30076.500000  14515.299570  6734.999502
    6571.6870  30074.500000  14496.299886  6715.000045
    6571.9910  30069.500000  14475.300295  6699.000050
    6572.3470  30059.500000  14454.300038  6682.000046
    6572.6520  30055.500000  14469.300130  6706.000164
    6573.0080  30058.500000  14450.300105  6682.000260
    6573.3130  30059.500000  14457.299617  6687.999833
    6573.6690  30050.500000  14426.299569  6645.999534
    6573.9750  30044.500000  14446.299849  6661.999841
    6574.3310  30050.500000  14446.299615  6635.999519
    6574.6870  30032.500000  14439.299607  6608.999816
    6574.9930  30029.500000  14468.299748  6614.999565
    6575.3490  30032.500000  14491.299410  6600.999841
    6575.6540  30030.500000  14527.299913  6601.999990
    6576.0110  30030.500000  14560.299780  6582.999759
    6576.3160  30017.500000  14588.300107  6567.999821
    6576.6730  30031.500000  14660.299570  6577.000108
    6576.9780  30024.500000  14730.300268  6607.999860
    6577.3350  30026.500000  14766.299523  6569.999951
    6577.6910  30027.500000  14827.299292  6566.999483
    6577.9970  30024.500000  14905.299413  6590.999558
    6578.3540  30018.500000  14920.299350  6531.999890
    6578.6600  30007.500000  14957.299633  6514.999608
    6579.0160  30003.500000  15006.300429  6497.000063
    6579.3220  30000.500000  15093.300173  6535.999939
    6579.6790  30000.500000  15131.300031  6498.000071
    6579.9850  29994.500000  15192.300167  6512.000018
    6580.7500  29985.500000  15296.299425  6472.999689
    6581.5150  29975.500000  15402.300499  6453.999921
    6582.2800  29967.500000  15488.299395  6415.999939
    6583.0460  29969.500000  15612.300511  6430.000383
    6583.8120  29962.500000  15710.299239  6433.999813
    6584.5260  29945.500000  15731.300072  6379.000112
    6585.2920  29944.500000  15796.300520  6377.000006
    6586.0590  29950.500000  15838.299391  6364.000054
    6586.8250  29924.500000  15814.300773  6300.000060
    6587.5920  29919.500000  15847.300046  6303.000197
    6588.3590  29921.500000  15864.299742  6296.999723
    6589.0750  29899.500000  15821.300386  6239.000279
    6589.8420  29894.500000  15820.299865  6229.999901
    6590.6100  29882.500000  15771.299877  6178.000187
    6591.3770  29892.500000  15785.299773  6202.999794
    6592.1460  29877.500000  15718.299216  6157.999626
    6592.8630  29862.500000  15646.300709  6122.000442
    6593.6310  29860.500000  15583.300136  6109.000263
    6594.3990  29845.500000  15474.299867  6065.000196
    6595.1680  29836.500000  15374.299877  6039.000247
    6595.8860  29836.500000  15285.299908  6023.999914
    6596.6550  29824.500000  15171.300277  5989.000300
    6597.4240  29818.500000  15077.300072  5973.999919
    6598.1940  29814.500000  15003.299632  5965.999799
    6598.9640  29803.500000  14904.299618  5919.000122
    6599.6830  29808.500000  14866.299723  5929.999850
    6600.4530  29787.500000  14750.300308  5860.000228
    6601.2230  29788.500000  14699.300579  5855.000093
    6601.9940  29791.500000  14655.299606  5855.999656
    6602.7130  29772.500000  14585.299657  5817.999934
    6603.4840  29779.500000  14561.300187  5819.999858
    6604.2550  29764.500000  14510.299509  5784.999697
    6604.9760  29754.500000  14478.300062  5762.000256
    6605.7470  29753.500000  14467.300605  5751.000112
    6606.5190  29744.500000  14433.300059  5711.000007
    6607.2910  29729.500000  14442.300264  5715.000123
    6608.0120  29727.500000  14421.299466  5675.999909
    6608.7850  29718.500000  14428.299881  5663.999950
    6609.5570  29720.500000  14436.299646  5649.999990
    6610.2780  29716.500000  14457.299563  5651.999900
    6611.0510  29703.500000  14450.300121  5621.000000
    6611.8250  29695.500000  14453.299378  5597.999597
    6612.5980  29689.500000  14480.300622  5598.000318
    6613.3200  29676.500000  14462.300336  5550.999973
    6614.0940  29670.500000  14485.300639  5545.000363
    6614.8680  29657.500000  14479.300019  5509.000144
    6615.5910  29650.500000  14481.300388  5479.999933
    6616.3650  29638.500000  14502.300498  5478.000115
    6617.1410  29628.500000  14492.299450  5440.999828
    6617.8630  29620.500000  14516.300482  5445.000179
    6618.6390  29604.500000  14481.300215  5387.000178
    6619.4140  29597.500000  14488.299582  5379.000081
    6620.1380  29593.500000  14495.299763  5368.999845
    6620.9140  29584.500000  14484.299585  5339.000032
    6621.6890  29567.500000  14461.299556  5310.001327
    6622.4140  29567.500000  14467.299347  5307.000962
    6623.1900  29556.500000  14468.300529  5310.001331
    6623.9150  29551.500000  14424.300283  5262.000639
    6624.6920  29547.500000  14414.299546  5258.999176
    6625.4690  29526.500000  14357.300596  5210.998902
    6626.1940  29514.500000  14330.299875  5198.001205
    6626.9720  29512.500000  14327.299917  5214.002539
    6627.7490  29509.500000  14289.300571  5184.000448
    6628.4750  29497.500000  14256.299996  5161.999033
    6629.2530  29486.500000  14220.300146  5134.002305
    6629.9790  29479.500000  14221.299514  5141.998445

