# XDI/1.0
# Column.1: energy eV
# Column.2: i0
# Column.3: itrans
# Column.4: irefer
# Beamline.name: SSRL 4-3
# Detector.I0: N2 15cm
# Detector.I1: N2 30cm
# Detector.I2: N2 15cm
# Element.edge: K
# Element.symbol: Mn
# Mono.d_spacing: 1.92009
# Mono.name: Si(220)
# Mono.notes: unfocused, detuned 10%
# Sample.formula: Mn3O4
# Sample.name: Mn3O4  haussmanite
# Sample.prep: powder, mixed with B(OH)3
# Sample.reference: Mn filter
# Sample.temperature: room temperature
# Scan.start_time: 1995-06-20 04:30:44
# ///
#    Note: mono d_spacing is nominal!
#     217  E XMU I0
#-------------
#   energy   i0   itrans  irefer
    6520.0030  28602.500000  21790.300217  7305.999987
    6521.0010  28602.500000  21814.300186  7317.002332
    6522.0000  28591.500000  21838.301350  7329.998937
    6523.0000  28580.500000  21813.301998  7293.999086
    6523.9990  28581.500000  21817.300487  7280.002862
    6524.9990  28567.500000  21824.301749  7280.999218
    6525.9990  28567.500000  21818.300891  7259.000216
    6527.0000  28556.500000  21818.300300  7247.996464
    6528.0000  28542.500000  21790.301916  7214.998646
    6529.0020  28535.500000  21787.302069  7205.000697
    6530.0030  28526.500000  21792.301818  7200.999097
    6531.0060  28523.500000  21772.301944  7167.999521
    6532.0080  28510.500000  21752.300901  7143.997835
    6533.0110  28510.500000  21739.301261  7120.996977
    6534.0140  28497.500000  21709.300520  7091.002764
    6535.0170  28485.500000  21662.301374  7043.001902
    6535.3180  28482.500000  21637.301868  7021.000741
    6535.6690  28485.500000  21625.301304  7007.002358
    6536.0210  28477.500000  21589.301732  6977.996923
    6536.3220  28478.500000  21584.300390  6977.001337
    6536.6740  28455.500000  21501.301399  6911.000818
    6537.0250  28452.500000  21474.301264  6891.997323
    6537.3270  28457.500000  21453.301427  6876.003154
    6537.6780  28453.500000  21370.301458  6813.999023
    6537.9790  28455.500000  21333.300668  6799.997629
    6538.3310  28452.500000  21188.301857  6686.999245
    6538.6830  28435.500000  21001.300504  6567.999950
    6538.9840  28448.500000  20818.300573  6443.999805
    6539.3360  28428.500000  20508.301658  6249.001951
    6539.6880  28431.500000  20208.301502  6063.999012
    6539.9900  28435.500000  20013.300241  5943.000049
    6540.3410  28430.500000  19868.300313  5838.999785
    6540.6430  28421.500000  19876.300672  5837.000787
    6540.9950  28421.500000  19915.300408  5843.998873
    6541.3470  28424.500000  19935.300393  5847.001989
    6541.6490  28416.500000  19884.301725  5811.998934
    6542.0010  28421.500000  19775.300332  5732.001095
    6542.3530  28408.500000  19622.300423  5622.001258
    6542.6550  28416.500000  19512.300516  5545.002449
    6543.0070  28407.500000  19304.300498  5385.999464
    6543.3090  28402.500000  19154.300689  5276.000183
    6543.6620  28406.500000  18894.300056  5071.001295
    6544.0140  28406.500000  18638.301656  4885.001987
    6544.3160  28397.500000  18365.301810  4703.002399
    6544.6680  28395.500000  18030.300106  4503.999059
    6545.0210  28397.500000  17670.300866  4305.999630
    6545.3230  28405.500000  17350.301580  4151.998931
    6545.6760  28396.500000  16893.301766  3931.999984
    6545.9780  28386.500000  16501.300237  3767.000947
    6546.3310  28391.500000  16052.299408  3605.999927
    6546.6830  28388.500000  15585.299552  3441.000023
    6546.9860  28392.500000  15245.299496  3340.001399
    6547.3380  28385.500000  14870.300242  3225.000004
    6547.6910  28373.500000  14545.299907  3118.000438
    6547.9940  28370.500000  14338.299918  3069.999114
    6548.3470  28364.500000  14084.299457  2976.998753
    6548.6490  28354.500000  13936.300012  2957.998768
    6549.0020  28352.500000  13713.300615  2880.999290
    6549.3550  28352.500000  13542.299859  2851.000855
    6549.6580  28344.500000  13377.299561  2808.999044
    6550.0110  28329.500000  13170.299605  2750.000970
    6550.3140  28327.500000  13033.300567  2735.000625
    6550.6670  28329.500000  12849.300378  2688.999966
    6551.0200  28324.500000  12708.300397  2676.000568
    6551.3230  28331.500000  12602.300288  2661.000979
    6551.6760  28313.500000  12470.300069  2634.999053
    6551.9790  28313.500000  12392.300133  2621.999836
    6552.3330  28318.500000  12315.300117  2604.999287
    6552.6870  28315.500000  12259.300310  2600.999666
    6552.9890  28316.500000  12227.300207  2607.000101
    6553.3430  28306.500000  12182.299776  2605.998910
    6553.6460  28302.500000  12128.299700  2580.999017
    6554.0000  28300.500000  12071.300458  2566.999667
    6554.3530  28299.500000  12005.300212  2550.999483
    6554.6560  28295.500000  11968.299924  2553.000876
    6555.0100  28295.500000  11899.300078  2542.001039
    6555.3130  28299.500000  11847.300511  2536.000000
    6555.6670  28288.500000  11767.299570  2525.001007
    6556.0210  28293.500000  11698.299581  2520.999617
    6556.3240  28289.500000  11638.300321  2525.000880
    6556.6780  28300.500000  11555.299609  2518.000596
    6556.9820  28300.500000  11494.300138  2520.999052
    6557.3360  28275.500000  11389.299854  2497.000734
    6557.6900  28270.500000  11304.299704  2478.000929
    6557.9930  28276.500000  11277.300172  2501.000548
    6558.3480  28265.500000  11214.300337  2475.000950
    6558.6510  28265.500000  11192.300423  2471.998863
    6559.0050  28255.500000  11187.300252  2465.999566
    6559.3090  28255.500000  11210.300340  2467.999810
    6559.6630  28246.500000  11245.299916  2458.998753
    6560.0180  28249.500000  11311.300365  2459.999775
    6560.3220  28241.500000  11386.300558  2469.999449
    6560.6760  28235.500000  11459.300276  2454.000749
    6560.9790  28234.500000  11542.299844  2458.999437
    6561.3340  28237.500000  11641.299556  2467.000603
    6561.6880  28227.500000  11708.299860  2447.000479
    6561.9930  28230.500000  11805.299653  2475.000390
    6562.3470  28224.500000  11869.299530  2468.000220
    6562.6520  28209.500000  11910.300342  2457.001246
    6563.0060  28213.500000  11968.299988  2458.999320
    6563.3110  28209.500000  12004.299780  2450.999500
    6563.6650  28203.500000  12060.300206  2462.000138
    6564.0200  28188.500000  12066.299401  2436.999071
    6564.3240  28191.500000  12113.299898  2461.999966
    6564.6790  28199.500000  12121.300142  2445.000304
    6564.9830  28199.500000  12151.299846  2467.000764
    6565.3390  28184.500000  12118.299693  2432.999070
    6565.6430  28188.500000  12134.300488  2453.001050
    6565.9980  28189.500000  12103.300309  2428.000716
    6566.3540  28183.500000  12087.299827  2424.999457
    6566.6580  28174.500000  12069.299700  2422.998962
    6567.0130  28169.500000  12026.300170  2394.999285
    6567.3170  28174.500000  12023.299756  2405.999509
    6567.6730  28165.500000  11996.299470  2394.999985
    6567.9770  28160.500000  11993.300315  2407.999180
    6568.3330  28162.500000  11955.300132  2376.998853
    6568.6880  28157.500000  11954.300032  2389.000431
    6568.9930  28158.500000  11948.299450  2385.999139
    6569.3490  28163.500000  11940.299762  2374.999468
    6569.6540  28159.500000  11954.300349  2385.999408
    6570.0090  28154.500000  11946.299913  2368.999229
    6570.3140  28146.500000  11968.300301  2382.000100
    6570.6700  28144.500000  11973.299794  2368.001034
    6571.0250  28132.500000  12006.299755  2385.000876
    6571.3300  28132.500000  12005.299672  2359.998991
    6571.6870  28119.500000  12028.299750  2360.999829
    6571.9910  28120.500000  12046.299866  2357.999400
    6572.3470  28119.500000  12071.299414  2356.000990
    6572.6520  28116.500000  12097.300066  2361.000082
    6573.0080  28111.500000  12119.300268  2358.001045
    6573.3130  28102.500000  12144.300200  2366.999076
    6573.6690  28098.500000  12132.299716  2333.999440
    6573.9750  28098.500000  12174.300264  2360.999849
    6574.3310  28087.500000  12158.299676  2327.998854
    6574.6870  28079.500000  12175.299554  2330.000012
    6574.9930  28082.500000  12198.300107  2336.998951
    6575.3490  28079.500000  12201.299625  2323.999149
    6575.6540  28082.500000  12241.300318  2352.001121
    6576.0110  28070.500000  12218.299694  2316.000563
    6576.3160  28070.500000  12244.299758  2327.999937
    6576.6730  28075.500000  12258.299403  2322.999433
    6576.9780  28074.500000  12283.299690  2337.999364
    6577.3350  28070.500000  12278.300321  2313.999709
    6577.6910  28056.500000  12289.299620  2309.000932
    6577.9970  28062.500000  12320.299471  2322.000888
    6578.3540  28067.500000  12348.300266  2322.999929
    6578.6600  28064.500000  12370.299927  2326.000880
    6579.0160  28072.500000  12394.299504  2319.998756
    6579.3220  28067.500000  12413.300557  2319.001079
    6579.6790  28062.500000  12432.300508  2312.999034
    6579.9850  28060.500000  12449.299963  2308.999684
    6580.7500  28051.500000  12525.300096  2323.999460
    6581.5150  28037.500000  12562.300434  2305.999719
    6582.2800  28030.500000  12623.299879  2313.999246
    6583.0460  28027.500000  12654.299907  2297.999751
    6583.8120  28020.500000  12688.299697  2294.000611
    6584.5260  28012.500000  12705.300126  2290.999623
    6585.2920  28009.500000  12713.300620  2284.001020
    6586.0590  28000.500000  12719.300537  2284.998955
    6586.8250  27995.500000  12701.300413  2271.999732
    6587.5920  27987.500000  12695.300453  2268.001125
    6588.3590  27980.500000  12667.299610  2241.998911
    6589.0750  27972.500000  12668.299678  2245.000592
    6589.8420  27974.500000  12652.299546  2226.999093
    6590.6100  27955.500000  12647.300083  2224.999654
    6591.3770  27959.500000  12630.300574  2206.999133
    6592.1460  27948.500000  12619.300541  2206.001125
    6592.8630  27940.500000  12598.299558  2199.000303
    6593.6310  27925.500000  12547.300589  2172.999671
    6594.3990  27923.500000  12509.299506  2163.999929
    6595.1680  27906.500000  12457.300500  2146.000413
    6595.8860  27904.500000  12438.300549  2151.999621
    6596.6550  27892.500000  12382.300024  2121.999990
    6597.4240  27891.500000  12375.300400  2137.999509
    6598.1940  27875.500000  12340.300462  2119.000186
    6598.9640  27861.500000  12323.300347  2113.000146
    6599.6830  27860.500000  12308.299797  2089.000695
    6600.4530  27853.500000  12322.300034  2095.000164
    6601.2230  27848.500000  12311.299571  2077.999194
    6601.9940  27843.500000  12317.299602  2071.000339
    6602.7130  27829.500000  12328.299711  2076.000921
    6603.4840  27818.500000  12312.300053  2051.999671
    6604.2550  27801.500000  12316.299849  2054.000954
    6604.9760  27796.500000  12319.299694  2050.999250
    6605.7470  27785.500000  12319.299551  2049.000477
    6606.5190  27786.500000  12305.300337  2025.999363
    6607.2910  27784.500000  12312.300598  2037.999748
    6608.0120  27758.500000  12284.299697  2018.999314
    6608.7850  27757.500000  12283.299480  2020.000126
    6609.5570  27754.500000  12281.300109  2016.999052
    6610.2780  27751.500000  12265.299455  2003.000072
    6611.0510  27737.500000  12266.300288  2004.001012
    6611.8250  27725.500000  12243.300230  1980.000045
    6612.5980  27724.500000  12255.300028  1988.000776
    6613.3200  27714.500000  12247.300458  1975.000284
    6614.0940  27691.500000  12251.299425  1977.999552
    6614.8680  27680.500000  12236.299393  1954.000665
    6615.5910  27668.500000  12248.300369  1957.999291
    6616.3650  27667.500000  12259.300080  1953.000366
    6617.1410  27656.500000  12263.300238  1946.000191
    6617.8630  27640.500000  12270.299757  1942.000619
    6618.6390  27632.500000  12280.299556  1937.999618
    6619.4140  27624.500000  12292.300123  1933.999348
    6620.1380  27613.500000  12291.299859  1924.000637
    6620.9140  27600.500000  12289.300288  1909.999516
    6621.6890  27591.500000  12303.300433  1910.000596
    6622.4140  27592.500000  12323.300213  1916.000224
    6623.1900  27591.500000  12340.300307  1920.000323
    6623.9150  27578.500000  12327.299612  1895.999772
    6624.6920  27559.500000  12329.299510  1888.000823
    6625.4690  27548.500000  12326.299958  1877.999637
    6626.1940  27538.500000  12340.299953  1880.999577
    6626.9720  27529.500000  12339.299583  1867.999845
    6627.7490  27512.500000  12343.300507  1863.000662
    6628.4750  27492.500000  12353.300078  1867.000701
    6629.2530  27474.500000  12328.299620  1834.000051
    6629.9790  27463.500000  12346.300337  1844.000600

