# XDI/1.0
# Column.1: energy eV
# Column.2: i0
# Column.3: itrans
# Column.4: irefer
# Beamline.name: SSRL 4-3
# Detector.I0: N2 15cm
# Detector.I1: N2 30cm
# Detector.I2: N2 15cm
# Element.edge: K
# Element.symbol: Mn
# Mono.d_spacing: 1.92009
# Mono.name: Si(220)
# Mono.notes: unfocused, detuned 10%
# Sample.formula: MnO
# Sample.name: MnO
# Sample.prep: powder, mixed with B(OH)3
# Sample.reference: Mn filter
# Sample.temperature: room temperature
# Scan.start_time: 1995-06-20 02:43:21
# ///
#    Note: mono d_spacing is nominal!
#     217  E XMU I0
#-------------
#   energy   i0   itrans  irefer
    6520.0030  31260.500000  39559.300308  21748.998701
    6521.0010  31244.500000  39558.301090  21716.000970
    6522.0000  31237.500000  39580.299067  21723.999044
    6523.0000  31219.500000  39528.301127  21592.000515
    6523.9990  31208.500000  39531.301203  21565.999852
    6524.9990  31201.500000  39519.300411  21505.000093
    6525.9990  31194.500000  39532.301500  21492.999925
    6527.0000  31185.500000  39519.299329  21431.998092
    6528.0000  31175.500000  39487.301134  21332.000793
    6529.0020  31166.500000  39494.301671  21298.999505
    6530.0030  31163.500000  39482.302684  21245.999911
    6531.0060  31152.500000  39481.302240  21203.000376
    6532.0080  31148.500000  39485.301549  21151.000091
    6533.0110  31127.500000  39419.301134  21016.000430
    6534.0140  31119.500000  39405.300288  20950.999045
    6535.0170  31124.500000  39425.301900  20912.000701
    6535.3180  31108.500000  39384.301339  20846.000217
    6535.6690  31105.500000  39339.301307  20730.999749
    6536.0210  31108.500000  39367.302806  20768.001105
    6536.3220  31099.500000  39332.299120  20693.998732
    6536.6740  31096.500000  39316.299273  20632.998697
    6537.0250  31094.500000  39307.300095  20599.999565
    6537.3270  31085.500000  39276.299568  20526.999585
    6537.6780  31092.500000  39268.302157  20454.999615
    6537.9790  31081.500000  39229.302758  20357.001095
    6538.3310  31073.500000  39174.301817  20201.001167
    6538.6830  31071.500000  39095.301765  19970.001056
    6538.9840  31060.500000  39007.300287  19725.999072
    6539.3360  31058.500000  38930.302149  19402.001346
    6539.6880  31057.500000  38876.300570  19078.999454
    6539.9900  31049.500000  38829.299569  18826.000227
    6540.3410  31032.500000  38746.302907  18579.000591
    6540.6430  31046.500000  38783.301513  18637.999501
    6540.9950  31034.500000  38721.302039  18609.001009
    6541.3470  31026.500000  38696.299605  18623.000039
    6541.6490  31028.500000  38628.302647  18514.000636
    6542.0010  31026.500000  38517.299500  18346.000201
    6542.3530  31007.500000  38307.301232  18042.000676
    6542.6550  31021.500000  38214.300816  17944.000274
    6543.0070  31019.500000  37954.301312  17624.999829
    6543.3090  31010.500000  37675.301865  17273.999585
    6543.6620  31011.500000  37367.300486  16916.999492
    6544.0140  31009.500000  37013.300061  16447.000319
    6544.3160  30995.500000  36717.299964  16038.999620
    6544.6680  30997.500000  36411.299638  15535.999138
    6545.0210  30987.500000  36166.301857  15102.000181
    6545.3230  30984.500000  36005.301066  14757.999569
    6545.6760  30979.500000  35813.302243  14275.000569
    6545.9780  30985.500000  35766.301568  14041.000449
    6546.3310  30980.500000  35620.302645  13563.001049
    6546.6830  30970.500000  35537.299624  13226.999252
    6546.9860  30973.500000  35453.302223  12930.002682
    6547.3380  30966.500000  35367.300374  12671.997972
    6547.6910  30948.500000  35208.299381  12352.998569
    6547.9940  30940.500000  35101.301351  12153.001853
    6548.3470  30931.500000  35004.302487  12025.001998
    6548.6490  30933.500000  34893.300186  11865.996099
    6549.0020  30922.500000  34762.300280  11749.004038
    6549.3550  30922.500000  34602.300707  11605.999634
    6549.6580  30914.500000  34462.301950  11529.004949
    6550.0110  30898.500000  34232.299871  11328.001156
    6550.3140  30903.500000  34106.300960  11252.002875
    6550.6670  30898.500000  33960.301145  11149.004697
    6551.0200  30890.500000  33855.301119  11052.996783
    6551.3230  30895.500000  33831.301108  11050.000158
    6551.6760  30888.500000  33750.301019  10928.000366
    6551.9790  30881.500000  33725.301065  10912.995525
    6552.3330  30869.500000  33643.301131  10803.000952
    6552.6870  30869.500000  33639.300844  10827.000402
    6552.9890  30866.500000  33562.301013  10736.997025
    6553.3430  30874.500000  33571.300846  10800.998251
    6553.6460  30870.500000  33485.300964  10701.999202
    6554.0000  30867.500000  33434.301047  10689.995996
    6554.3530  30858.500000  33389.300994  10661.003158
    6554.6560  30841.500000  33330.301082  10555.994796
    6555.0100  30839.500000  33369.301009  10530.000208
    6555.3130  30840.500000  33420.301052  10482.000324
    6555.6670  30833.500000  33541.300869  10473.995238
    6556.0210  30834.500000  33674.300937  10428.995576
    6556.3240  30825.500000  33806.301145  10425.995029
    6556.6780  30817.500000  33947.300961  10388.000588
    6556.9820  30816.500000  34071.302492  10360.996929
    6557.3360  30811.500000  34214.300396  10357.995120
    6557.6900  30815.500000  34322.300736  10298.994923
    6557.9930  30802.500000  34405.301144  10282.995982
    6558.3480  30798.500000  34468.300911  10242.001787
    6558.6510  30794.500000  34525.300483  10228.995695
    6559.0050  30791.500000  34577.299325  10202.995747
    6559.3090  30786.500000  34674.300127  10334.995753
    6559.6630  30776.500000  34604.302074  10152.002856
    6560.0180  30774.500000  34621.300879  10138.997476
    6560.3220  30779.500000  34652.299392  10152.003589
    6560.6760  30779.500000  34684.301698  10167.000027
    6560.9790  30775.500000  34704.300705  10177.003528
    6561.3340  30768.500000  34717.300610  10167.995988
    6561.6880  30764.500000  34730.300800  10162.002588
    6561.9930  30759.500000  34743.301458  10166.996018
    6562.3470  30766.500000  34770.302142  10171.997845
    6562.6520  30747.500000  34753.302037  10144.001952
    6563.0060  30753.500000  34779.300929  10165.995831
    6563.3110  30740.500000  34748.301858  10127.998360
    6563.6650  30742.500000  34728.301582  10089.002428
    6564.0200  30749.500000  34765.302471  10169.996175
    6564.3240  30741.500000  34738.300299  10150.001297
    6564.6790  30733.500000  34687.301358  10097.003179
    6564.9830  30736.500000  34683.302441  10114.999017
    6565.3390  30741.500000  34632.302101  10069.004394
    6565.6430  30738.500000  34626.301095  10122.002710
    6565.9980  30722.500000  34519.299906  10015.997705
    6566.3540  30720.500000  34479.301387  10016.995338
    6566.6580  30722.500000  34450.299293  10017.000356
    6567.0130  30718.500000  34377.300554  9958.002298
    6567.3170  30717.500000  34360.299883  9974.001173
    6567.6730  30709.500000  34288.302224  9881.005254
    6567.9770  30696.500000  34268.300445  9870.995816
    6568.3330  30693.500000  34249.299289  9822.003322
    6568.6880  30688.500000  34287.302344  9853.001126
    6568.9930  30683.500000  34285.302055  9805.002855
    6569.3490  30680.500000  34327.300606  9815.001432
    6569.6540  30674.500000  34352.300561  9793.001428
    6570.0090  30678.500000  34415.301741  9801.998403
    6570.3140  30676.500000  34462.300559  9814.000505
    6570.6700  30667.500000  34471.302349  9740.000431
    6571.0250  30663.500000  34526.302407  9753.999658
    6571.3300  30660.500000  34563.301926  9739.000372
    6571.6870  30658.500000  34615.302344  9756.003592
    6571.9910  30657.500000  34626.300752  9710.002411
    6572.3470  30649.500000  34663.302033  9729.004213
    6572.6520  30642.500000  34652.301134  9674.998987
    6573.0080  30643.500000  34690.302052  9699.003692
    6573.3130  30635.500000  34674.299608  9642.995214
    6573.6690  30628.500000  34676.299707  9636.996060
    6573.9750  30631.500000  34726.302302  9694.002461
    6574.3310  30621.500000  34680.302574  9613.005071
    6574.6870  30616.500000  34688.300868  9625.997193
    6574.9930  30616.500000  34699.302272  9630.003404
    6575.3490  30603.500000  34667.300068  9573.002351
    6575.6540  30607.500000  34718.301788  9644.000161
    6576.0110  30608.500000  34694.301382  9585.000687
    6576.3160  30600.500000  34684.300475  9571.999796
    6576.6730  30597.500000  34665.300681  9523.002677
    6576.9780  30585.500000  34656.300456  9519.997064
    6577.3350  30591.500000  34657.300379  9489.997912
    6577.6910  30587.500000  34668.300139  9493.000416
    6577.9970  30578.500000  34653.299599  9458.000032
    6578.3540  30580.500000  34683.301659  9484.001733
    6578.6600  30578.500000  34684.300438  9470.996679
    6579.0160  30561.500000  34654.301067  9426.999382
    6579.3220  30560.500000  34670.300442  9438.003135
    6579.6790  30563.500000  34674.300277  9420.995727
    6579.9850  30553.500000  34669.302642  9425.998274
    6580.7500  30542.500000  34638.301733  9380.997084
    6581.5150  30542.500000  34677.302153  9448.002621
    6582.2800  30536.500000  34619.302057  9342.999903
    6583.0460  30520.500000  34590.299759  9323.995970
    6583.8120  30523.500000  34588.300144  9324.995461
    6584.5260  30523.500000  34618.301203  9390.997135
    6585.2920  30516.500000  34579.299440  9315.998779
    6586.0590  30497.500000  34530.300469  9227.998826
    6586.8250  30494.500000  34539.301151  9238.003949
    6587.5920  30473.500000  34460.300575  9112.999890
    6588.3590  30463.500000  34455.300478  9140.004206
    6589.0750  30470.500000  34414.300921  9092.002695
    6589.8420  30464.500000  34342.301400  9033.996694
    6590.6100  30449.500000  34239.302278  8959.999522
    6591.3770  30434.500000  34156.299458  8920.000774
    6592.1460  30427.500000  34081.301976  8867.003408
    6592.8630  30421.500000  34049.300712  8878.001677
    6593.6310  30411.500000  33996.301060  8819.998733
    6594.3990  30398.500000  33925.300555  8714.001197
    6595.1680  30390.500000  33915.300664  8694.001104
    6595.8860  30369.500000  33867.302310  8596.997508
    6596.6550  30390.500000  33948.299337  8652.997213
    6597.4240  30387.500000  33972.301799  8636.000233
    6598.1940  30365.500000  33936.301954  8553.001684
    6598.9640  30353.500000  33920.302608  8478.001350
    6599.6830  30339.500000  33926.302344  8444.003917
    6600.4530  30322.500000  33930.299685  8388.002501
    6601.2230  30308.500000  33947.302685  8334.999042
    6601.9940  30313.500000  34060.302543  8413.003611
    6602.7130  30301.500000  34067.301237  8325.998897
    6603.4840  30293.500000  34121.301547  8313.002606
    6604.2550  30277.500000  34138.301408  8253.001583
    6604.9760  30267.500000  34181.300639  8241.997500
    6605.7470  30266.500000  34210.300753  8189.000000
    6606.5190  30259.500000  34243.302042  8165.002109
    6607.2910  30245.500000  34259.301795  8128.001806
    6608.0120  30233.500000  34285.299665  8113.997698
    6608.7850  30220.500000  34280.301950  8054.000319
    6609.5570  30229.500000  34332.302292  8061.000407
    6610.2780  30218.500000  34363.299491  8066.003413
    6611.0510  30200.500000  34330.301181  7960.003030
    6611.8250  30195.500000  34382.300329  7970.999611
    6612.5980  30184.500000  34400.302144  7917.997616
    6613.3200  30179.500000  34452.300940  7940.996617
    6614.0940  30176.500000  34478.301211  7904.001702
    6614.8680  30157.500000  34483.299986  7873.999653
    6615.5910  30151.500000  34510.301483  7870.998064
    6616.3650  30132.500000  34481.302599  7788.997987
    6617.1410  30129.500000  34527.301477  7825.998704
    6617.8630  30118.500000  34493.299952  7744.997111
    6618.6390  30121.500000  34535.300454  7790.998295
    6619.4140  30105.500000  34482.301049  7702.001108
    6620.1380  30094.500000  34465.300345  7682.999500
    6620.9140  30086.500000  34433.301610  7640.997566
    6621.6890  30079.500000  34421.300612  7629.997950
    6622.4140  30069.500000  34410.301061  7628.002145
    6623.1900  30060.500000  34363.299422  7562.003116
    6623.9150  30048.500000  34350.299680  7555.001112
    6624.6920  30038.500000  34327.301245  7512.001880
    6625.4690  30013.500000  34287.301962  7454.002083
    6626.1940  30001.500000  34292.301414  7437.999144
    6626.9720  29995.500000  34320.301873  7450.000283
    6627.7490  29982.500000  34320.302138  7425.002921
    6628.4750  29985.500000  34362.299942  7435.999715
    6629.2530  29963.500000  34338.300857  7366.998575
    6629.9790  29945.500000  34319.299475  7307.000512

