# XDI/1.0
# Column.1: energy eV
# Column.2: i0
# Column.3: itrans
# Column.4: irefer
# Beamline.name: SSRL 4-3
# Detector.I0: N2 15cm
# Detector.I1: Ar 30cm
# Detector.I2: Ar 15cm
# Element.edge: K
# Element.symbol: Cu
# Mono.d_spacing: 1.92009
# Mono.name: Si(220)
# Mono.notes: unfocused, detuned 50%,higher piezo, at E=9200eV
# Sample.formula: CuO
# Sample.name: CuO  copper oxide   tenorite
# Sample.prep: powder, mixed with B(OH)3
# Sample.reference: Cu metal foil (?)
# Sample.temperature: 13K
# Scan.start_time: 1996-07-30 09:34:32
# ///
#    Note: mono d_spacing is nominal!
#     exafs to K13
#     398  E XMU XMUR I0
#-------------
#   energy   i0   itrans  irefer
    8760.0190  46739.301000  214243.319029  15327.389233
    8770.0090  46288.301000  214445.419400  15456.401452
    8779.9770  45826.301000  214412.382974  15593.391207
    8790.0170  45351.301000  214778.414006  15706.393584
    8799.9830  44898.301000  214961.502593  15821.407917
    8810.0230  44459.301000  215165.432646  15971.409002
    8819.9910  44000.301000  215435.481474  16064.413353
    8829.9830  43524.301000  215881.452454  16157.404471
    8840.0000  43108.301000  216053.395208  16296.405747
    8849.9900  42652.301000  216323.337928  16408.397119
    8860.0070  42182.301000  216643.409022  16524.394200
    8869.9970  41734.301000  217071.405416  16624.397689
    8880.0120  41320.301000  217196.381646  16732.399486
    8890.0010  40852.301000  217468.311954  16846.385910
    8900.0150  40448.301000  218340.471462  16979.413508
    8910.0030  40061.301000  218657.331050  17076.389971
    8920.0160  39598.301000  219254.512660  17138.411198
    8930.0010  39139.301000  218825.389339  17204.398930
    8940.0110  38714.301000  219104.342617  17301.393833
    8949.9960  38297.301000  219582.369923  17291.402691
    8960.0030  37869.301000  219007.457963  17178.400055
    8960.7630  37815.301000  219288.411103  17184.396796
    8961.5210  37748.301000  219226.505729  17149.404810
    8962.2810  37682.301000  218594.303135  17114.388025
    8963.0410  37645.301000  219059.446682  17107.400352
    8963.8000  37635.301000  218578.335756  17097.401046
    8964.5610  37574.301000  218483.464138  17040.405749
    8965.3200  37516.301000  218577.475767  17014.408295
    8966.0800  37570.301000  218732.357655  17028.388640
    8966.8410  37657.301000  218316.501823  17035.405472
    8967.6020  37615.301000  218711.368633  16998.394682
    8968.3120  37541.301000  218297.472836  16914.406035
    8969.0710  37465.301000  218014.417942  16856.396482
    8969.8320  37456.301000  218372.418464  16798.405090
    8970.5930  37425.301000  218944.434313  16738.408235
    8971.3540  37336.301000  218251.500653  16632.407821
    8972.1160  37320.301000  218370.342738  16546.398111
    8972.8770  37286.301000  218060.379315  16427.405279
    8973.6390  37238.301000  217886.400508  16306.402602
    8974.3990  37182.301000  218112.474648  16102.408684
    8975.1620  37154.301000  218214.503135  15850.412708
    8975.9240  37091.301000  217722.315282  15460.393069
    8976.6860  37112.301000  217631.328608  14899.393062
    8977.4480  37062.301000  217397.463554  13906.401969
    8978.1590  37010.301000  217174.304858  12466.390702
    8978.9220  36992.301000  216921.342292  10397.400364
    8979.6850  36947.301000  216769.504999  8514.406406
    8980.4470  36923.301000  216816.378906  7312.402032
    8981.2100  36851.301000  216213.408729  6684.403141
    8981.9740  36871.301000  211302.445419  6308.402644
    8982.7360  36836.301000  193765.332227  5760.399323
    8983.4990  36790.301000  163739.418185  4968.401957
    8984.2630  36702.301000  133366.429734  4126.400390
    8984.9760  36707.301000  115010.413059  3580.400525
    8985.7380  36638.301000  106454.447287  3256.402859
    8986.5030  36624.301000  104957.444952  3108.402665
    8987.2680  36596.301000  103208.392222  2950.401225
    8988.0310  36545.301000  96776.395298  2702.399587
    8988.7960  36544.301000  86589.395187  2406.398787
    8989.5610  36506.301000  74853.395644  2109.399850
    8990.3240  36426.301000  63386.396278  1857.399272
    8991.0380  36387.301000  53846.399523  1674.399411
    8991.8030  36358.301000  45690.396841  1536.400190
    8992.5670  36347.301000  40606.398426  1457.399453
    8993.3330  36309.301000  37408.397988  1413.400106
    8994.0990  36315.301000  35191.397995  1395.399393
    8994.8630  36238.301000  33037.397856  1381.399600
    8995.6290  36220.301000  30806.400066  1372.400591
    8996.3440  36175.301000  28860.399419  1361.399743
    8997.1090  36147.301000  27477.400991  1354.400451
    8997.8750  36091.301000  27198.400509  1352.400507
    8998.6420  36060.301000  27769.399164  1358.400174
    8999.4070  35999.301000  28675.400265  1362.399688
    9000.1740  35993.301000  29945.400430  1363.400215
    9000.8900  35969.301000  31538.399169  1363.400334
    9001.6560  35930.301000  33691.397863  1370.399836
    9002.4230  35884.301000  36009.397995  1377.400407
    9003.1890  35847.301000  38067.397925  1394.400004
    9003.9560  35853.301000  39831.399799  1415.400516
    9004.6720  35808.301000  41183.398991  1439.399824
    9005.4400  35790.301000  42572.399103  1467.400011
    9006.2070  35736.301000  43761.398101  1489.399632
    9006.9750  35738.301000  44675.398046  1509.399623
    9007.7430  35717.301000  45107.399115  1527.400534
    9008.4600  35662.301000  45019.396779  1537.399629
    9009.2280  35652.301000  44688.396820  1543.400176
    9009.9950  35566.301000  44139.399153  1542.400221
    9010.5590  35557.297000  43849.389462  1543.396945
    9011.0710  35533.293000  43618.365467  1541.389509
    9011.6350  35513.281000  43456.321891  1540.375687
    9012.1980  35467.266000  43380.268141  1535.356630
    9012.8140  35494.246000  43481.192959  1537.332081
    9013.3770  35447.223000  43548.097382  1536.303205
    9013.9930  35413.191000  43672.987582  1530.266308
    9014.6070  35396.160000  43847.861087  1528.226541
    9015.2240  35343.121000  43996.723996  1524.180939
    9015.8380  35341.082000  44233.564702  1523.130693
    9016.4540  35315.035000  44456.384900  1518.072737
    9017.1210  35299.984000  44776.189362  1512.009424
    9017.7880  35264.930000  45217.984085  1504.942792
    9018.4550  35248.867000  45822.758899  1501.869833
    9019.1220  35263.805000  46650.515789  1501.791883
    9019.7880  35220.738000  47555.253037  1501.708195
    9020.5080  35208.664000  48705.978710  1503.617376
    9021.1760  35200.586000  49872.683609  1505.524632
    9021.8940  35196.508000  51087.373520  1510.423950
    9022.6130  35153.422000  52176.049498  1511.318680
    9023.3320  35110.332000  53092.705511  1511.206814
    9024.1030  35093.234000  53933.345868  1510.091052
    9024.8220  35081.137000  54602.964634  1509.969087
    9025.5940  35058.035000  55202.576678  1514.842739
    9026.3650  35041.926000  55675.162414  1522.710743
    9027.1360  34978.813000  55907.734589  1526.572056
    9027.9590  35011.695000  56020.290112  1537.428089
    9028.7300  35007.574000  55809.825498  1548.280466
    9029.5540  35003.449000  55338.352283  1554.124243
    9030.3780  35010.320000  54659.857593  1565.965513
    9031.2000  34931.188000  53706.345975  1564.800233
    9032.0240  34969.047000  52821.816612  1573.630388
    9032.8990  34942.906000  51706.271119  1571.455205
    9033.7240  34871.758000  50623.711601  1566.273256
    9034.6000  34846.605000  49546.132981  1562.087730
    9035.4760  34846.449000  48519.536836  1551.894648
    9036.3520  34822.289000  47487.925098  1545.696272
    9037.2780  34783.125000  46361.295173  1535.493696
    9038.1550  34652.957000  45164.652705  1521.285591
    9039.0830  34217.781000  43604.991216  1508.072916
    9040.0120  34377.602000  42823.312876  1491.852517
    9040.9400  34899.422000  42583.615536  1491.628636
    9041.8680  34756.234000  41727.903412  1479.399188
    9042.7980  34838.043000  41274.174076  1478.164299
    9043.7780  34900.848000  40883.429200  1468.923511
    9044.7600  34924.648000  40480.667981  1462.677304
    9045.7410  34851.441000  39998.885251  1458.424269
    9046.7230  34846.234000  39586.088983  1456.168641
    9047.7040  34847.020000  39222.278884  1446.906638
    9048.7380  34797.801000  38858.447620  1439.637715
    9049.7710  34055.582000  37824.602646  1389.364925
    9050.7540  33910.355000  37596.739265  1376.087496
    9051.7880  33819.121000  37570.860100  1370.803073
    9052.8750  33715.887000  37687.962659  1367.512985
    9053.9100  33592.648000  37899.045744  1364.217404
    9054.9970  33508.402000  38239.117629  1365.918387
    9056.0320  33432.156000  38595.172015  1365.611333
    9057.1200  33354.902000  38960.205292  1363.300705
    9058.2590  33316.645000  39359.226575  1363.984809
    9059.3480  33281.383000  39796.229498  1361.663578
    9060.4360  33242.117000  40162.216126  1358.336319
    9061.5760  33170.848000  40514.183306  1354.002631
    9062.7170  33173.570000  40939.135942  1357.665220
    9063.8570  33143.293000  41276.068359  1357.322316
    9064.9990  33095.008000  41561.990317  1355.972698
    9066.1920  33017.719000  41725.896564  1353.617931
    9067.3350  32993.430000  41976.777585  1351.258730
    9068.5280  32946.133000  42190.648393  1345.894159
    9069.7240  32959.828000  42494.501308  1344.523515
    9070.9190  32919.523000  42705.336373  1342.147423
    9072.1130  32902.215000  42927.153771  1340.766655
    9073.3600  32894.898000  43150.951564  1346.378600
    9074.5580  32906.582000  43332.736931  1356.986454
    9075.8050  32875.258000  43452.506558  1363.589469
    9077.0540  32823.930000  43529.258559  1368.185381
    9078.3030  32843.598000  43668.990038  1378.777504
    9079.5530  32870.262000  43801.710032  1398.363827
    9080.8540  32846.922000  43833.411311  1410.944505
    9082.1570  32824.574000  43837.093485  1415.520548
    9083.4600  32840.227000  43923.764090  1426.090090
    9084.7630  32786.871000  43967.413658  1431.654489
    9086.0650  32775.512000  44093.049009  1440.214630
    9087.3690  32831.148000  44304.666004  1449.767210
    9088.7270  32813.781000  44395.267663  1451.316216
    9090.0830  32826.410000  44465.849800  1456.858601
    9091.3890  32833.035000  44498.415116  1460.395914
    9092.7980  32826.656000  44519.966248  1469.928512
    9094.1560  32817.270000  44618.501338  1472.455774
    9095.5150  32794.883000  44718.017529  1477.975871
    9096.9270  32833.488000  44923.514691  1485.492505
    9098.3380  32799.090000  44980.001105  1491.001395
    9099.7510  32782.688000  45073.463063  1496.508415
    9101.1630  32758.279000  45162.912225  1493.007025
    9102.5760  32763.869000  45310.348647  1492.501324
    9104.0420  32759.453000  45466.762370  1488.989291
    9105.4570  32812.031000  45653.165475  1484.474662
    9106.9240  32776.609000  45678.545362  1477.952554
    9108.3920  32802.180000  45762.911780  1473.424048
    9109.8590  32831.746000  45892.261733  1467.890760
    9111.3800  32783.309000  45972.592970  1464.352864
    9112.8500  32813.867000  46208.903706  1462.808913
    9114.3710  32750.420000  46297.204737  1463.259653
    9115.8950  32815.969000  46497.486467  1470.705557
    9117.4170  32802.516000  46512.752382  1470.145712
    9118.9410  32820.055000  46524.998090  1471.581630
    9120.4650  32816.590000  46453.233727  1470.009819
    9122.0420  32787.121000  46218.450778  1459.434579
    9123.5680  32812.648000  45969.643320  1449.853114
    9125.1460  32817.172000  45575.829218  1433.265654
    9126.7260  32804.691000  45132.992652  1416.673508
    9128.3580  32825.203000  44753.139759  1404.076238
    9129.9380  32842.715000  44441.270556  1392.471958
    9131.5710  32819.219000  44134.385223  1387.864436
    9133.1530  32820.719000  43970.484095  1388.249489
    9134.7880  32793.215000  43842.564347  1389.629457
    9136.4250  32777.707000  43808.629551  1392.005927
    9138.1120  32789.195000  43866.675886  1397.375648
    9139.7490  32795.680000  43961.708752  1405.740204
    9141.4400  32766.158000  44033.720458  1412.099656
    9143.0780  32728.633000  44071.716244  1425.452378
    9144.7700  32431.104000  43720.695109  1430.801193
    9146.4620  32471.568000  43920.657860  1451.143368
    9148.2070  32880.031000  44533.606794  1471.480612
    9149.9000  32912.488000  44591.535776  1486.813234
    9151.6480  32918.938000  44726.448481  1506.138387
    9153.3430  32914.387000  44906.347615  1522.459557
    9155.0920  32763.830000  44889.228358  1540.775503
    9156.8420  32701.270000  45094.090869  1555.086568
    9158.6450  32693.705000  45397.931926  1564.390907
    9160.3950  32727.135000  45773.766827  1573.691527
    9162.2000  32997.563000  46577.580036  1577.984359
    9164.0050  33104.984000  47334.368815  1575.274661
    9165.7590  33022.398000  47803.151033  1566.557534
    9167.6170  32993.813000  48401.914031  1562.834812
    9169.4260  33009.223000  49068.658305  1558.106820
    9171.2340  32964.625000  49626.393380  1552.374690
    9173.0970  32989.023000  50231.100652  1555.635851
    9174.9590  32966.422000  50586.797754  1557.892005
    9176.7710  32926.813000  50673.470566  1559.143311
    9178.6880  32950.199000  50605.137380  1559.387476
    9180.5550  32966.578000  50304.782916  1558.628332
    9182.4210  32955.957000  49864.410591  1556.862431
    9184.3420  32946.332000  49390.017781  1558.092528
    9186.2630  32925.699000  48932.616463  1550.316614
    9188.1310  32932.063000  48644.193183  1546.534223
    9190.1080  32952.422000  48557.752540  1549.747266
    9192.0320  32937.781000  48626.301010  1554.953369
    9193.9570  32938.129000  48860.828529  1560.156322
    9195.9360  32943.477000  49194.335007  1567.353416
    9197.8620  32915.820000  49488.830283  1573.544933
    9199.8440  32903.156000  49788.308143  1573.729343
    9201.8260  32895.492000  50073.770451  1570.910405
    9203.8620  32919.820000  50415.214675  1566.085209
    9205.8470  32906.145000  50738.643447  1560.255857
    9207.8310  32893.465000  51125.050688  1558.420184
    9209.8700  32916.781000  51569.447196  1562.578574
    9211.9110  32938.094000  51895.820668  1566.732531
    9213.9520  32889.402000  51924.180031  1568.879356
    9215.9940  32882.703000  51818.523136  1573.023675
    9218.0380  32905.004000  51628.850965  1576.160212
    9220.1360  32893.297000  51283.158217  1581.292259
    9222.1810  32842.586000  50843.451167  1585.418368
    9224.2810  32866.871000  50507.729802  1592.538669
    9226.3830  32863.152000  50263.985675  1602.655322
    9228.4840  32844.430000  50225.234112  1616.765538
    9230.6420  32819.703000  50428.456874  1631.870065
    9232.7450  32840.969000  50867.666749  1649.968985
    9234.9050  32860.230000  51418.859010  1666.062423
    9237.0110  32837.492000  51895.034509  1680.151741
    9239.1730  32825.746000  52329.195491  1689.234464
    9241.3340  32790.996000  52590.335415  1692.311533
    9243.5520  32818.242000  52761.461023  1696.384157
    9245.7170  32785.484000  52694.572227  1694.450427
    9247.8820  32830.719000  52678.664848  1698.513628
    9250.1030  32807.953000  52542.735895  1698.568531
    9252.3250  32781.180000  52451.795677  1696.619209
    9254.5490  32797.402000  52473.837126  1698.665096
    9256.7730  32761.623000  52436.861087  1697.705782
    9258.9980  32778.840000  52503.870215  1700.739039
    9261.2800  32699.049000  52437.862380  1696.767372
    9263.5080  32758.256000  52616.834808  1698.791510
    9265.7910  32745.457000  52794.791230  1698.809200
    9268.0760  32737.654000  53111.735635  1699.822636
    9270.3600  32733.848000  53559.658757  1709.830341
    9272.6480  32726.035000  54092.564609  1711.831309
    9274.9910  32710.219000  54648.454635  1720.828630
    9277.2800  32724.398000  55195.333734  1727.819858
    9279.6250  32685.574000  55545.189711  1736.806216
    9281.9720  32688.746000  55770.026170  1738.786680
    9284.3190  32692.912000  55819.853076  1738.760662
    9286.6680  32686.074000  55741.660719  1742.729941
    9289.0190  32670.232000  55631.446556  1742.694758
    9291.4260  32625.385000  55527.220853  1739.652475
    9293.7770  32631.535000  55572.982233  1744.606715
    9296.1880  32625.680000  55642.717595  1747.554196
    9298.5970  32599.818000  55730.440489  1747.497047
    9301.0090  32584.955000  55859.146369  1752.433299
    9303.4210  32554.086000  55932.840304  1764.364715
    9305.8910  32509.213000  56001.514000  1772.292181
    9308.3070  32517.336000  56190.166175  1777.213632
    9310.7770  32517.453000  56468.810579  1792.127498
    9313.2510  32473.568000  56754.427227  1804.038325
    9315.6710  32469.678000  57113.034709  1821.942736
    9318.2020  32435.781000  57416.623264  1828.841791
    9320.6800  32450.883000  57718.194545  1841.735722
    9323.1580  32414.979000  57809.754868  1843.624610
    9325.6930  32370.070000  57777.286449  1845.506435
    9328.1760  32367.158000  57793.815214  1851.384554
    9330.7140  32389.240000  57837.315767  1860.256105
    9333.2540  32343.318000  57789.803281  1861.123516
    9335.7950  32301.393000  57788.278225  1866.985235
    9338.3930  32301.463000  57958.736826  1878.841425
    9340.9370  32320.529000  58257.171520  1892.690196
    9343.5390  32281.590000  58564.592985  1898.536448
    9346.0860  32230.646000  58964.993604  1906.375774
    9348.6890  32234.699000  59557.389735  1914.210720
    9351.2960  32245.746000  60206.759349  1928.039392
    9353.9020  32224.789000  60705.111339  1936.863479
    9356.5670  32200.828000  61047.446085  1945.681627
    9359.1780  32193.863000  61218.770152  1952.492662
    9361.8450  32195.893000  61228.073266  1960.300539
    9364.4590  32150.920000  61001.360435  1957.102702
    9367.1290  32166.941000  60766.633556  1957.898782
    9369.8020  32148.957000  60456.887547  1951.689697
    9372.4770  32152.971000  60222.121825  1948.474497
    9375.2070  32114.979000  60002.345721  1953.255869
    9377.8860  32148.982000  59995.549598  1953.030729
    9380.6200  32109.982000  59990.729835  1952.799624
    9383.3010  32141.977000  60167.904996  1955.562881
    9386.0390  32094.967000  60236.057004  1963.322373
    9388.7780  32095.953000  60410.192906  1970.075462
    9391.5210  32106.936000  60626.311473  1975.822923
    9394.2640  32095.912000  60864.414064  1986.564311
    9397.0640  32125.885000  61294.498482  1996.301246
    9399.8120  32041.854000  61569.571891  2000.033211
    9402.6160  32071.818000  62094.623096  2018.759877
    9405.4230  32095.777000  62606.660102  2031.480147
    9408.2300  32120.734000  63065.674804  2048.196481
    9411.0400  32098.686000  63329.679816  2062.906880
    9413.8530  32118.631000  63577.661015  2076.610852
    9416.7220  32111.574000  63682.635411  2082.308067
    9419.5370  32148.512000  63857.584814  2092.003808
    9422.4110  32172.445000  64053.523648  2102.691185
    9425.2860  32233.373000  64438.439675  2119.373115
    9428.1070  32268.299000  64872.343533  2136.050137
    9431.0420  32211.219000  65233.223890  2146.723890
    9433.9240  32229.135000  65780.093168  2160.388912
    9436.8060  32299.047000  66369.945443  2180.051118
    9439.7480  32264.953000  66677.782048  2184.707156
    9442.6350  32299.855000  67006.601277  2191.357338
    9445.5790  32269.754000  67169.399743  2192.003099
    9448.5270  32299.648000  67402.184767  2205.641580
    9451.4770  32335.537000  67650.953028  2216.276293
    9454.4280  32307.422000  67810.705934  2229.905231
    9457.3810  32288.303000  67987.436341  2231.528839
    9460.3930  32271.180000  68142.157322  2216.146932
    9463.3500  32275.051000  68355.861519  2252.758166
    9466.3650  32233.918000  68380.538015  2278.365391
    9469.3830  32231.781000  68345.208164  2275.967993
    9472.4030  32232.641000  68268.860128  2275.563547
    9475.4260  32174.494000  68073.494763  2274.153572
    9478.4490  32172.344000  68051.107347  2275.739379
