# XDI/1.0
# Column.1: energy eV
# Column.2: i0
# Column.3: itrans
# Column.4: irefer
# Beamline.name: SSRL 4-3
# Detector.I0: N2 15cm
# Detector.I1: Ar 30cm
# Detector.I2: Ar 15cm
# Element.edge: K
# Element.symbol: Cu
# Mono.d_spacing: 1.92009
# Mono.name: Si(220)
# Mono.notes: unfocused, detuned 50%,higher piezo, at E=9010eV
# Sample.formula: CuS
# Sample.name: CuS  copper sulfide  covellite
# Sample.prep: powder, mixed with B(OH)3
# Sample.reference: Cu metal foil
# Sample.temperature: 13K
# Scan.start_time: 1996-07-25 15:02:33
# ///
#    Note: mono d_spacing is nominal!
#     exafs to K13
#     432  E XMU XMUR I0
#-------------
#   energy   i0   itrans  irefer
    8759.9840  29774.900000  24187.199736  14099.800618
    8770.0220  29448.900000  24230.199247  14184.799847
    8779.9900  29061.900000  24252.200074  14242.800315
    8789.9810  28735.900000  24296.198849  14321.799430
    8799.9970  28347.900000  24314.197849  14375.798793
    8809.9880  28016.900000  24364.198971  14438.799596
    8820.0050  27641.900000  24372.199976  14500.800249
    8829.9970  27304.900000  24406.199387  14571.800279
    8840.0130  26975.900000  24415.198917  14636.800577
    8850.0040  26613.900000  24425.199010  14680.800412
    8860.0210  26253.900000  24435.199115  14730.800582
    8870.0110  25968.900000  24454.198971  14814.799365
    8879.9770  25624.900000  24475.198899  14856.800626
    8890.0150  25290.900000  24487.198903  14904.799680
    8899.9790  24963.900000  24488.199080  14979.800066
    8910.0170  24640.900000  24490.199007  15008.800018
    8919.9790  24322.900000  24486.198993  15042.799714
    8930.0160  23965.900000  24484.198901  15049.799467
    8940.0240  23687.900000  24458.199052  15113.799479
    8950.0090  23369.900000  24443.199045  15088.799590
    8960.0170  23010.900000  24445.199000  15014.799330
    8960.5230  22997.900000  24406.199000  15014.799641
    8960.9790  22988.900000  24376.198886  15014.800291
    8961.4840  22994.900000  24354.199098  15018.800489
    8961.9910  22940.900000  24379.199122  14984.800295
    8962.4980  22945.900000  24353.199113  14999.800804
    8963.0040  22894.900000  24354.199003  14975.800201
    8963.5110  22892.900000  24336.198906  14972.799807
    8964.0170  22884.900000  24318.199106  14962.799755
    8964.5230  22872.900000  24305.198893  14961.799813
    8964.9790  22828.900000  24285.198928  14924.800124
    8965.4850  22787.900000  24313.199042  14881.799754
    8965.9930  22838.900000  24326.199117  14921.799874
    8966.4990  22889.900000  24344.198956  14931.800274
    8967.0070  22883.900000  24336.199094  14925.799363
    8967.5130  22877.900000  24283.198928  14924.799257
    8968.0210  22829.900000  24317.199062  14880.799835
    8968.4770  22831.900000  24295.199051  14872.800291
    8968.9830  22809.900000  24298.198997  14859.799287
    8969.4910  22770.900000  24296.198918  14814.800502
    8969.9980  22756.900000  24285.198903  14776.799746
    8970.5060  22754.900000  24276.199036  14759.800559
    8971.0130  22713.900000  24245.199085  14714.800469
    8971.5200  22694.900000  24271.198965  14676.800057
    8971.9770  22671.900000  24264.199010  14635.799855
    8972.4840  22645.900000  24216.199017  14573.799913
    8972.9920  22582.900000  24261.198939  14498.800512
    8973.5000  22614.900000  24227.199083  14471.800042
    8974.0080  22563.900000  24199.199014  14370.799482
    8974.5150  22552.900000  24190.198992  14275.799354
    8975.0230  22529.900000  24199.199060  14159.799604
    8975.4800  22507.900000  24196.199096  14038.800475
    8975.9880  22513.900000  24181.198900  13871.800331
    8976.4960  22482.900000  24078.199120  13622.799600
    8977.0040  22484.900000  24075.198984  13277.799404
    8977.5130  22453.900000  23976.198965  12719.799923
    8978.0210  22464.900000  23880.198984  11928.799724
    8978.4790  22408.900000  23792.198941  10877.800395
    8978.9860  22402.900000  23714.199050  9607.800156
    8979.4950  22404.900000  23609.199017  8402.803708
    8980.0040  22404.900000  23359.198929  7434.801377
    8980.5120  22382.900000  23146.198942  6690.800843
    8981.0210  22352.900000  22730.199086  6203.802413
    8981.4780  22332.900000  22287.198995  5938.802285
    8981.9870  22302.900000  21545.198943  5722.798905
    8982.4950  22290.900000  20796.199079  5568.798009
    8983.0040  22239.900000  20035.198926  5417.799155
    8983.5140  22260.900000  19383.199317  5243.801311
    8984.0220  22240.900000  18738.198411  5014.797974
    8984.4800  22226.900000  18155.199020  4781.799629
    8984.9890  22168.900000  17508.199355  4505.799324
    8985.4990  22172.900000  16985.199080  4276.801095
    8986.0080  22172.900000  16626.199303  4079.799000
    8986.5170  22151.900000  16466.199614  3928.798962
    8986.9760  22123.900000  16451.199165  3814.800509
    8987.4850  22100.900000  16517.199496  3690.799981
    8987.9940  22095.900000  16609.198542  3555.798570
    8988.5030  22086.900000  16663.199625  3403.800742
    8989.0140  22047.900000  16643.198913  3234.798567
    8989.5220  22025.900000  16575.198861  3054.801251
    8989.9810  21992.900000  16474.199229  2882.801239
    8990.4910  21982.900000  16382.199981  2713.798675
    8991.0010  21964.900000  16291.200652  2562.799267
    8991.5120  21961.900000  16216.199859  2428.801034
    8992.0210  21972.900000  16147.200256  2323.799766
    8992.4790  21929.900000  16041.199837  2243.798980
    8992.9890  21922.900000  15932.200542  2179.800268
    8993.5000  21887.900000  15791.200788  2135.799122
    8994.0110  21893.900000  15687.199467  2119.800667
    8994.5210  21902.900000  15588.200473  2125.800098
    8994.9790  21888.900000  15500.200495  2139.799128
    8995.4900  21853.900000  15410.199499  2165.799539
    8996.0000  21837.900000  15363.199279  2200.800136
    8996.5110  21806.900000  15322.199637  2238.799385
    8997.0210  21832.900000  15330.199499  2277.799184
    8997.4810  21804.900000  15300.200229  2298.799236
    8997.9920  21769.900000  15251.199897  2314.799748
    8998.5020  21750.900000  15209.200427  2318.799364
    8999.0140  21750.900000  15173.200337  2309.799527
    8999.5240  21726.900000  15131.199802  2284.800756
    8999.9830  21703.900000  15092.200209  2252.800408
    9000.4940  21662.900000  15059.200299  2201.799807
    9001.0060  21681.900000  15075.200024  2155.800273
    9001.5170  21647.900000  15060.200746  2106.800724
    9001.9780  21612.900000  15045.199326  2067.799418
    9002.4870  21623.900000  15065.200545  2042.800140
    9002.9990  21617.900000  15070.199868  2028.799574
    9003.5110  21581.900000  15040.199761  2029.800679
    9004.0220  21533.900000  15006.199828  2042.800044
    9004.4820  21524.900000  14997.199813  2070.798961
    9004.9930  21515.900000  14988.199578  2106.799975
    9005.5060  21536.900000  14996.200111  2143.799759
    9006.0170  21533.900000  14989.199937  2181.799375
    9006.4780  21471.900000  14944.200581  2202.800055
    9006.9890  21458.900000  14928.200539  2230.799581
    9007.5020  21442.900000  14913.199425  2256.799566
    9008.0130  21432.900000  14900.199836  2280.800835
    9008.5240  21404.900000  14876.200704  2302.799756
    9008.9850  21399.900000  14869.199847  2323.800401
    9009.4980  21403.900000  14870.200567  2345.799421
    9010.0100  21351.900000  14828.199340  2364.800655
    9010.5210  21334.891000  14822.168144  2379.789189
    9011.0850  21299.865000  14806.071523  2389.758547
    9011.6480  21284.824000  14812.910484  2392.706449
    9012.2130  21316.764000  14861.687688  2398.634472
    9012.7760  21273.688000  14870.397681  2392.542251
    9013.3920  21289.594000  14938.044916  2393.429582
    9014.0070  21281.484000  15001.627555  2393.294094
    9014.5700  21269.357000  15069.145340  2388.138754
    9015.1850  21278.213000  15159.601376  2382.963987
    9015.8530  21269.053000  15249.990886  2370.770257
    9016.4680  21245.873000  15312.317422  2353.551737
    9017.1350  21274.678000  15410.579271  2340.316646
    9017.7500  21280.467000  15479.777733  2320.058753
    9018.4170  21266.238000  15532.910712  2296.779777
    9019.0850  21282.992000  15602.980537  2275.479856
    9019.8030  21298.729000  15679.985647  2254.161581
    9020.4700  21261.449000  15711.927334  2226.821265
    9021.1890  21281.152000  15777.804885  2206.461715
    9021.9080  21279.838000  15825.618511  2186.080144
    9022.6270  21299.508000  15881.366025  2168.677368
    9023.3460  21293.160000  15916.050960  2146.254209
    9024.1170  21304.795000  15929.672496  2128.813037
    9024.8370  21382.412000  15982.227362  2127.348386
    9025.6080  21351.014000  15939.720404  2118.864078
    9026.3790  21349.600000  15908.147576  2125.358309
    9027.1490  21387.166000  15902.511019  2138.832293
    9027.9220  21424.717000  15887.811700  2163.287933
    9028.7440  21419.250000  15841.046489  2191.719620
    9029.5670  21478.766000  15843.217951  2228.131895
    9030.3920  21448.266000  15798.324703  2261.526218
    9031.2140  21482.748000  15805.367451  2298.895050
    9032.0380  21528.215000  15827.345951  2336.247945
    9032.8610  21536.662000  15831.260408  2368.577330
    9033.7370  21575.094000  15866.111681  2400.885179
    9034.6130  21592.510000  15887.896538  2422.174270
    9035.4890  21609.906000  15908.618727  2439.443698
    9036.3650  21604.287000  15925.276552  2446.691166
    9037.2410  21635.652000  15946.870604  2451.918084
    9038.1690  21580.998000  15910.400347  2447.125341
    9039.0460  21364.328000  15746.865275  2426.311773
    9039.9740  21659.641000  15935.266423  2438.477007
    9040.9020  21964.938000  16132.604602  2447.620565
    9041.8830  21898.217000  16051.877453  2432.743950
    9042.8120  22002.479000  16083.085486  2438.848810
    9043.7920  22134.725000  16131.228350  2449.928995
    9044.7740  22187.951000  16119.310993  2454.993206
    9045.7550  22177.162000  16054.325593  2457.034956
    9046.7370  22280.357000  16075.277588  2464.055422
    9047.7190  22320.535000  16047.166738  2456.054761
    9048.7530  22360.695000  16025.989210  2440.035846
    9049.7340  22417.838000  16016.748904  2428.993518
    9050.7680  22452.965000  15996.444467  2412.934102
    9051.8030  22491.074000  15996.075636  2413.851053
    9052.8370  22536.166000  16018.642441  2415.748547
    9053.9240  22647.242000  16106.146648  2429.625131
    9054.9590  22682.301000  16154.583682  2437.480268
    9056.0460  22730.342000  16225.959272  2438.315383
    9057.1340  22824.365000  16337.270080  2443.130004
    9058.2220  22869.373000  16417.515642  2436.924496
    9059.3610  22935.365000  16505.697799  2428.698804
    9060.4500  23011.338000  16595.813271  2425.450914
    9061.5900  23059.295000  16660.869762  2422.184556
    9062.7300  23128.234000  16741.859201  2421.897012
    9063.8720  23181.156000  16806.782199  2420.588052
    9065.0140  23247.063000  16896.645337  2425.258463
    9066.1550  23320.951000  17003.441098  2424.905952
    9067.3490  23381.824000  17117.175393  2421.536772
    9068.5430  23444.678000  17243.844137  2421.146572
    9069.6860  23512.516000  17367.446708  2417.733607
    9070.9330  23617.338000  17524.987214  2424.299710
    9072.1280  23655.141000  17623.465300  2426.847936
    9073.3230  23750.928000  17756.877460  2446.373939
    9074.5710  23854.699000  17896.225434  2477.881152
    9075.8190  23875.451000  17973.507645  2507.366192
    9077.0680  23962.188000  18088.726301  2554.827963
    9078.3170  24016.906000  18181.883732  2605.273601
    9079.5660  24134.609000  18326.974088  2658.696509
    9080.8680  24206.295000  18434.999845  2709.098772
    9082.1190  24250.963000  18518.962885  2752.479737
    9083.4220  24307.615000  18616.861005  2795.843013
    9084.7250  24402.248000  18745.697496  2844.184147
    9086.0800  24489.865000  18850.466441  2886.502780
    9087.3840  24577.467000  18956.173324  2919.801538
    9088.6880  24673.051000  19058.814450  2950.081200
    9090.0460  24760.617000  19144.392765  2979.340200
    9091.4030  24791.166000  19187.905910  3006.576873
    9092.7610  24903.699000  19272.354248  3056.793977
    9094.1180  24992.215000  19324.742629  3100.989569
    9095.5290  25107.713000  19389.063883  3148.166405
    9096.9400  25172.195000  19413.319688  3182.322933
    9098.3000  25263.660000  19455.511539  3206.456392
    9099.7130  25352.107000  19490.641805  3217.570086
    9101.1250  25450.537000  19532.705055  3220.663013
    9102.5900  25530.951000  19568.704498  3202.736437
    9104.0050  25620.350000  19611.643727  3183.790467
    9105.4710  25727.729000  19681.514789  3155.821554
    9106.9380  25851.092000  19750.322963  3136.833475
    9108.4050  25910.438000  19773.063835  3107.823367
    9109.8730  26026.768000  19832.744748  3092.792322
    9111.3420  26077.078000  19856.358651  3083.740447
    9112.8630  26175.373000  19915.909942  3080.669387
    9114.3330  26302.652000  20025.398054  3087.576165
    9115.8550  26347.914000  20085.820267  3101.463531
    9117.3790  26499.158000  20241.180320  3132.330070
    9118.9560  26564.385000  20348.473746  3148.178114
    9120.4790  26706.596000  20503.702428  3159.003015
    9122.0050  26773.789000  20599.868382  3153.808236
    9123.5830  26872.965000  20721.973576  3133.591098
    9125.1610  26971.123000  20851.009725  3101.355814
    9126.7400  27067.266000  20982.981431  3059.096776
    9128.3200  27159.393000  21111.893473  3026.819970
    9129.9530  27290.500000  21266.738008  3012.520959
    9131.5340  27376.592000  21377.520836  3018.203967
    9133.1680  27484.666000  21486.236109  3033.865500
    9134.8030  27578.725000  21585.889604  3061.502603
    9136.4390  27621.764000  21636.476402  3097.122990
    9138.0740  27757.789000  21772.000978  3132.720466
    9139.7640  27850.795000  21874.463621  3175.299351
    9141.4010  27947.785000  21972.857635  3233.858311
    9143.0930  27933.758000  21986.189837  3284.395187
    9144.7840  27805.713000  21917.456137  3341.909677
    9146.4760  28029.652000  22123.662782  3437.404737
    9148.1690  28530.574000  22557.801806  3563.880517
    9149.9150  28558.479000  22653.874111  3650.334765
    9151.6090  28653.367000  22803.885955  3751.770861
    9153.3570  28801.238000  22978.834941  3866.182447
    9155.1060  28726.092000  22972.718017  3948.577307
    9156.8550  28804.930000  23091.533912  4030.945860
    9158.6050  28948.748000  23246.290156  4095.298286
    9160.4090  29096.553000  23405.979258  4126.631734
    9162.1600  29377.338000  23669.605596  4136.941558
    9163.9670  29612.107000  23882.168628  4117.227904
    9165.7720  29682.859000  24003.665339  4071.496170
    9167.5800  29734.596000  24127.100635  4024.745650
    9169.4390  29815.313000  24301.469471  3979.972145
    9171.2490  29948.014000  24513.772730  3962.182904
    9173.1100  30034.699000  24673.015255  3949.366343
    9174.9210  30118.367000  24817.190665  3955.533897
    9176.7850  30281.018000  24989.305355  3978.679370
    9178.6490  30358.650000  25078.354038  4000.802977
    9180.5680  30423.268000  25126.337791  4019.906366
    9182.4360  30527.867000  25189.258121  4043.989233
    9184.3560  30650.449000  25261.113855  4071.055130
    9186.2240  30773.014000  25339.905284  4101.096747
    9188.1460  30887.563000  25419.632562  4122.116772
    9190.0690  30983.096000  25501.295771  4147.120614
    9191.9930  31090.609000  25612.896961  4181.098505
    9193.9720  31169.107000  25808.431582  4216.060849
    9195.8970  31282.588000  25923.903259  4254.998667
    9197.8770  31405.053000  25943.308200  4279.917371
    9199.8580  31509.498000  26052.650878  4282.815088
    9201.8410  31579.930000  26121.930021  4252.691992
    9203.8240  31699.342000  26240.145882  4220.546084
    9205.8610  31834.738000  26361.296255  4192.385415
    9207.8460  31918.117000  26445.380152  4181.200807
    9209.8860  32033.479000  26585.402173  4193.993047
    9211.9260  32147.824000  26730.361806  4227.767456
    9213.9670  32188.152000  26833.253874  4251.521567
    9216.0090  32368.463000  27076.082797  4304.253779
    9218.0530  32487.758000  27265.851038  4358.966733
    9220.1500  32582.035000  27460.550922  4421.661201
    9222.1960  32666.295000  27631.187382  4503.329952
    9224.2960  32854.539000  27881.759925  4600.981770
    9226.3970  32958.766000  28040.269265  4694.612924
    9228.4990  33043.973000  28173.713268  4782.222467
    9230.6030  33132.168000  28297.092288  4875.809068
    9232.7610  33249.344000  28468.406758  4964.377627
    9234.8650  33347.500000  28588.659180  5034.922365
    9237.0250  33431.641000  28737.847633  5102.450869
    9239.1880  33542.766000  28906.972289  5147.956407
    9241.3500  33647.875000  29067.031798  5184.444003
    9243.5130  33720.965000  29204.025249  5200.909690
    9245.7310  33851.039000  29362.956389  5220.352316
    9247.8970  33983.094000  29502.823353  5243.776609
    9250.1180  34027.137000  29576.627955  5263.180245
    9252.3410  34148.156000  29702.365452  5288.563651
    9254.5630  34307.164000  29863.039999  5321.927743
    9256.7880  34380.152000  29946.648679  5331.264335
    9259.0140  34533.125000  30113.193811  5362.586466
    9261.2940  34609.078000  30219.678484  5383.885458
    9263.5210  34695.016000  30357.097510  5395.165882
    9265.8060  34814.938000  30544.448407  5402.425112
    9268.0900  34941.844000  30762.738834  5428.664632
    9270.3760  35019.730000  30931.961960  5446.880268
    9272.6620  35134.598000  31150.124531  5472.082424
    9275.0060  35254.453000  31372.221869  5502.254116
    9277.2950  35341.289000  31541.254022  5535.413891
    9279.6410  35440.109000  31700.222550  5557.546319
    9281.9860  35523.910000  31851.127793  5582.662376
    9284.3350  35622.695000  31980.966685  5607.757656
    9286.6840  35766.465000  32155.741598  5650.827658
    9289.0340  35842.215000  32255.455401  5671.883155
    9291.4400  35955.949000  32408.101904  5701.917092
    9293.7930  36042.668000  32544.684700  5725.924716
    9296.2010  36147.367000  32694.203871  5754.918098
    9298.6110  36263.051000  32831.660011  5802.885501
    9301.0230  36356.719000  32962.050956  5847.837465
    9303.4370  36419.367000  33070.378872  5898.764862
    9305.8510  36489.000000  33184.640897  5951.677695
    9308.3210  36605.613000  33334.840100  6025.564086
    9310.7380  36724.215000  33508.973102  6092.431461
    9313.2110  36803.797000  33632.042864  6170.274147
    9315.6860  36861.359000  33737.051040  6229.105050
    9318.1620  36968.906000  33888.991968  6292.907723
    9320.6940  37124.438000  34069.867035  6355.695430
    9323.1740  37172.953000  34179.684153  6390.461174
    9325.6540  37264.449000  34324.429886  6434.198900
    9328.1890  37360.930000  34487.117068  6473.926718
    9330.7290  37458.391000  34685.737993  6529.625517
    9333.2690  37535.840000  34863.293024  6594.312268
    9335.8100  37641.266000  35077.785157  6665.966995
    9338.3530  37727.680000  35268.214971  6747.608411
    9340.9520  37784.074000  35430.577947  6824.228068
    9343.4980  37904.453000  35636.878999  6897.831098
    9346.1010  37998.813000  35824.116877  6939.406988
    9348.7050  38089.156000  36002.289087  6973.969133
    9351.3110  38133.484000  36125.395025  6991.506683
    9353.9190  38261.797000  36319.438035  7041.020246
    9356.5270  38378.090000  36494.417871  7092.517207
    9359.1930  38451.363000  36640.332112  7120.996005
    9361.8060  38820.625000  37066.183855  7204.451274
    9364.4750  38955.867000  37264.969132  7256.885338
    9367.1450  39047.094000  37424.691088  7293.296774
    9369.8170  39123.301000  37563.351954  7329.687581
    9372.4920  39184.492000  37696.944984  7359.066248
    9375.1670  39310.668000  37895.476918  7405.417022
    9377.9000  39349.824000  38011.941189  7431.742491
    9380.5790  39447.965000  38181.344089  7466.057049
    9383.3160  39552.090000  38389.680148  7501.347547
