# XDI/1.0 GSE/1.0
# Column.1: energy eV
# Column.2: mutrans
# Column.3: i0
# Element.edge: K
# Element.symbol: Fe
# Scan.edge_energy: 7112.
# Mono.name: Si 111
# Mono.d_spacing: 3.13550
# Beamline.name: 13-BM-D
# Beamline.collimation: none
# Beamline.focusing: no
# Beamline.harmonic_rejection: detuned 50%
# Facility.name: APS
# Facility.energy: 7.00 GeV
# Facility.xray_source: APS bending magnet
# Scan.start_time: 2002-03-16T18:27:34
# Detector.I0: 15cm  N2
# Detector.I1: 15cm  N2
# Sample.name: Fe3C
# Sample.prep: powder on tape, 6 layers
# ///
# room temperature
# measured at beamline 13-BM-D
# vert slits = 2mm (at 45m)
#----
#   energy       mutrans            i0
  6962.0000      -0.69530319E-01    303823.80
  6972.0000      -0.83089335E-01    305990.80
  6982.0000      -0.96928147E-01    305927.80
  6992.0000      -0.11002976        306046.80
  7002.0000      -0.12307830        305831.80
  7012.0000      -0.13566287        305863.80
  7022.0000      -0.14870553        305783.80
  7032.0000      -0.16121120        305480.80
  7042.0000      -0.17369592        306033.80
  7052.0000      -0.18686032        305728.80
  7062.0000      -0.19839162        305626.80
  7072.0000      -0.21038927        305650.80
  7082.0000      -0.22028494        305689.80
  7092.0000      -0.22833474        305570.80
  7092.5000      -0.22873841        305282.80
  7093.0000      -0.22904866        305204.80
  7093.5000      -0.22965841        305134.80
  7094.0000      -0.22966857        305146.80
  7094.5000      -0.22970419        305155.80
  7095.0000      -0.23005690        305161.80
  7095.5000      -0.22997712        305090.80
  7096.0000      -0.23047173        305094.80
  7096.5000      -0.23077582        305006.80
  7097.0000      -0.23070292        305033.80
  7097.5000      -0.23102938        305039.80
  7098.0000      -0.23100174        304899.80
  7098.5000      -0.23073353        304953.80
  7099.0000      -0.23046523        304930.80
  7099.5000      -0.23064408        304858.80
  7100.0000      -0.23010669        304832.80
  7100.5000      -0.22993071        304834.80
  7101.0000      -0.22954906        304789.80
  7101.5000      -0.22956706        304770.80
  7102.0000      -0.22949951        304789.80
  7102.5000      -0.22864358        304758.80
  7103.0000      -0.22786618        304702.80
  7103.5000      -0.22680335        304649.80
  7104.0000      -0.22547663        304648.80
  7104.5000      -0.22471673        304620.80
  7105.0000      -0.22299449        304601.80
  7105.5000      -0.22123283        304573.80
  7106.0000      -0.21959256        304511.80
  7106.5000      -0.21693557        304455.80
  7107.0000      -0.21355828        304565.80
  7107.5000      -0.20854365        304570.80
  7108.0000      -0.20295176        304442.80
  7108.5000      -0.19491073        304432.80
  7109.0000      -0.18315053        304408.80
  7109.5000      -0.16303668        304363.80
  7110.0000      -0.12517337        304373.80
  7110.5000      -0.60116861E-01    304365.80
  7111.0000       0.38951155E-01    304308.80
  7111.5000       0.13999727        305032.80
  7112.0000       0.20782686        305843.80
  7112.5000       0.25359357        306296.80
  7113.0000       0.28289161        306305.80
  7113.5000       0.30607880        306321.80
  7114.0000       0.33334054        306286.80
  7114.5000       0.37268374        306258.80
  7115.0000       0.41408338        306196.80
  7115.5000       0.45861914        306195.80
  7116.0000       0.49863014        305839.80
  7116.5000       0.53084836        305559.80
  7117.0000       0.56727903        306056.80
  7117.5000       0.61520953        306632.80
  7118.0000       0.67407143        306466.80
  7118.5000       0.75156011        306219.80
  7119.0000       0.83210198        306081.80
  7119.5000       0.91617815        305986.80
  7120.0000        1.0033223        306004.80
  7120.5000        1.0896314        305908.80
  7121.0000        1.1823188        305960.80
  7121.5000        1.2867724        305899.80
  7122.0000        1.3903128        305904.80
  7122.5000        1.4977217        305905.80
  7123.0000        1.6032006        305858.80
  7123.5000        1.6956177        305862.80
  7124.0000        1.7818449        305823.80
  7124.5000        1.8604716        305743.80
  7125.0000        1.9281337        305746.80
  7125.5000        1.9906083        305744.80
  7126.0000        2.0484200        305645.80
  7126.5000        2.1019777        305679.80
  7127.0000        2.1576425        305694.80
  7127.5000        2.2070723        305660.80
  7128.0000        2.2518206        305600.80
  7128.5000        2.2900635        305564.80
  7129.0000        2.3190115        305532.80
  7129.5000        2.3369514        305536.80
  7130.0000        2.3409016        305540.80
  7130.5000        2.3379035        305423.80
  7131.0000        2.3272562        305458.80
  7131.5000        2.3095030        305450.80
  7132.0000        2.2896692        305483.80
  7132.8830        2.2412941        305532.80
  7133.7850        2.1911552        305476.80
  7134.7070        2.1393463        305452.80
  7135.6470        2.1059929        305389.80
  7136.6060        2.0914313        305314.80
  7137.5840        2.0853047        305300.80
  7138.5820        2.0871609        305319.80
  7139.5990        2.0902393        305298.80
  7140.6340        2.0923216        305278.80
  7141.6890        2.0912769        305194.80
  7142.7630        2.0899179        305208.80
  7143.8560        2.0842200        305178.80
  7144.9680        2.0804475        305150.80
  7146.0990        2.0808281        305130.80
  7147.2490        2.0808740        305152.80
  7148.4180        2.0840603        305073.80
  7149.6060        2.0887790        305014.80
  7150.8140        2.0964693        305017.80
  7152.0410        2.1070982        305003.80
  7153.2860        2.1156465        305050.80
  7154.5510        2.1196450        304998.80
  7155.8340        2.1184977        304981.80
  7157.1370        2.1151227        304940.80
  7158.4590        2.1055305        304944.80
  7159.8000        2.0882437        304875.80
  7161.1600        2.0629459        304837.80
  7162.5390        2.0301720        304794.80
  7163.9370        1.9971152        304756.80
  7165.3540        1.9679586        304729.80
  7166.7910        1.9421112        304687.80
  7168.2460        1.9184883        304650.80
  7169.7200        1.9010855        304588.80
  7171.2140        1.8872847        303615.80
  7172.7260        1.8828432        305871.80
  7174.2580        1.8822112        304686.80
  7175.8090        1.8862850        304591.80
  7177.3780        1.8954795        304456.80
  7178.9670        1.9112410        304607.80
  7180.5750        1.9314799        304487.80
  7182.2030        1.9595037        304505.80
  7183.8490        1.9863167        304493.80
  7185.5140        2.0105091        304400.80
  7187.1980        2.0295991        304452.80
  7188.9010        2.0466589        304333.80
  7190.6240        2.0624673        304290.80
  7192.3650        2.0740839        304392.80
  7194.1260        2.0849335        304334.80
  7195.9060        2.0933052        304313.80
  7197.7050        2.0968252        304279.80
  7199.5220        2.0994580        304216.80
  7201.3590        2.1009697        304243.80
  7203.2150        2.0967764        304256.80
  7205.0900        2.0892968        304154.80
  7206.9840        2.0723284        304152.80
  7208.8970        2.0518577        304106.80
  7210.8300        2.0279595        304014.80
  7212.7810        2.0039976        304049.80
  7214.7510        1.9799289        304075.80
  7216.7410        1.9562723        303947.80
  7218.7500        1.9317068        303935.80
  7220.7770        1.9055919        303866.80
  7222.8240        1.8824665        303936.80
  7224.8900        1.8614454        303963.80
  7226.9750        1.8427196        303899.80
  7229.0790        1.8247998        303835.80
  7231.2020        1.8106331        303786.80
  7233.3440        1.7983713        303762.80
  7235.5050        1.7900712        303719.80
  7237.6850        1.7887775        303775.80
  7239.8850        1.7930764        303780.80
  7242.1030        1.8067358        303725.80
  7244.3410        1.8283252        303626.80
  7246.5970        1.8535961        303597.80
  7248.8730        1.8814304        303595.80
  7251.1670        1.9063797        303547.80
  7253.4810        1.9280167        303675.80
  7255.8140        1.9446897        303558.80
  7258.1660        1.9577117        303549.80
  7260.5370        1.9641791        303444.80
  7262.9270        1.9640431        303474.80
  7265.3360        1.9545016        303261.80
  7267.7650        1.9383305        304225.80
  7270.2120        1.9177632        304191.80
  7272.6790        1.8942215        305416.80
  7275.1640        1.8686634        305517.80
  7277.6680        1.8423758        305486.80
  7280.1920        1.8177678        305487.80
  7282.7350        1.7983345        305454.80
  7285.2970        1.7833931        305446.80
  7287.8770        1.7751699        305429.80
  7290.4780        1.7674468        305363.80
  7293.0970        1.7589973        305337.80
  7295.7350        1.7533919        305247.80
  7298.3920        1.7480261        305302.80
  7301.0680        1.7411918        305162.80
  7303.7640        1.7376691        304339.80
  7306.4780        1.7325526        305947.80
  7309.2110        1.7284790        305120.80
  7311.9640        1.7244487        305110.80
  7314.7360        1.7206894        305094.80
  7317.5260        1.7172377        305112.80
  7320.3360        1.7178534        305038.80
  7323.1650        1.7183978        305048.80
  7326.0130        1.7209280        305055.80
  7328.8800        1.7238783        304936.80
  7331.7660        1.7298231        304989.80
  7334.6710        1.7322111        304955.80
  7337.5960        1.7332135        304910.80
  7340.5390        1.7304884        304859.80
  7343.5010        1.7244455        304851.80
  7346.4830        1.7131949        304835.80
  7349.4830        1.6999361        304739.80
  7352.5030        1.6853374        304762.80
  7355.5420        1.6693187        304771.80
  7358.6000        1.6529007        304790.80
  7361.6760        1.6361332        304770.80
  7364.7720        1.6210576        304722.80
  7367.8870        1.6091369        304635.80
  7371.0210        1.6001828        304654.80
  7374.1750        1.5949391        304613.80
  7377.3470        1.5891865        304610.80
  7380.5380        1.5854915        304541.80
  7383.7490        1.5788353        304601.80
  7386.9780        1.5761917        304590.80
  7390.2270        1.5719695        304424.80
  7393.4940        1.5689970        304476.80
  7396.7810        1.5655066        304420.80
  7400.0870        1.5602598        304393.80
  7403.4120        1.5561477        304457.80
  7406.7550        1.5516859        304390.80
  7410.1190        1.5474670        304274.80
  7413.5000        1.5438864        303636.80
  7416.9020        1.5416530        304935.80
  7420.3220        1.5361475        304218.80
  7423.7610        1.5269012        303941.80
  7427.2200        1.5188570        304415.80
  7430.6970        1.5123552        304239.80
  7434.1940        1.5039280        304219.80
  7437.7090        1.4981581        304106.80
  7441.2440        1.4903118        304055.80
  7444.7980        1.4807885        304044.80
  7448.3710        1.4693600        304014.80
  7451.9620        1.4601664        304380.80
  7455.5740        1.4511004        305841.80
  7459.2040        1.4434625        306017.80
  7462.8530        1.4352855        306037.80
  7466.5210        1.4279383        305961.80
  7470.2080        1.4200051        305856.80
  7473.9150        1.4125826        305861.80
  7477.6400        1.4055318        306073.80
  7481.3850        1.3970011        305814.80
  7485.1480        1.3901722        305861.80
  7488.9310        1.3842719        305858.80
  7492.7330        1.3766506        305786.80
  7496.5540        1.3719075        305723.80
  7500.3940        1.3676996        305731.80
  7504.2530        1.3614234        304977.80
  7508.1310        1.3564874        306527.80
  7512.0280        1.3520323        305779.80
  7515.9440        1.3459354        305726.80
  7519.8790        1.3394856        305711.80
  7523.8340        1.3305099        305582.80
  7527.8070        1.3233253        305554.80
  7531.8000        1.3147150        305500.80
  7535.8120        1.3072559        305488.80
  7539.8420        1.3008914        305489.80
  7543.8920        1.2943609        305562.80
  7547.9610        1.2866390        305507.80
  7552.0490        1.2805042        305337.80
  7556.1560        1.2733171        305369.80
  7560.2820        1.2653929        305330.80
  7564.4270        1.2573530        305392.80
  7568.5910        1.2474835        305366.80
  7572.7740        1.2398510        305328.80
  7576.9770        1.2311261        305241.80
  7581.1980        1.2230344        305251.80
  7585.4390        1.2166656        305207.80
  7589.6980        1.2085838        305004.80
  7593.9770        1.2024552        305417.80
  7598.2750        1.1943801        305209.80
  7602.5920        1.1884071        305180.80
  7606.9280        1.1811750        305014.80
  7611.2830        1.1750564        305213.80
  7615.6570        1.1681674        305073.80
  7620.0500        1.1609511        304974.80
  7624.4620        1.1531782        304992.80
  7628.8940        1.1460963        304916.80
  7633.3440        1.1389769        304955.80
  7637.8130        1.1307343        304834.80
  7642.3020        1.1234043        304865.80
  7646.8100        1.1155806        304799.80
  7651.3360        1.1093033        304802.80
  7655.8820        1.1028162        304711.80
  7660.4470        1.0970365        302907.80
  7665.0300        1.0876210        306255.80
  7669.6340        1.0816648        304687.80
  7674.2550        1.0743273        304556.80
  7678.8960        1.0680432        304586.80
  7683.5570        1.0602084        304634.80
  7688.2360        1.0538377        304521.80
  7692.9350        1.0464824        304539.80
  7697.6520        1.0371068        304473.80
  7702.3890        1.0299403        304800.80
  7707.1440        1.0219356        306246.80
  7711.9190        1.0135509        306414.80
  7716.7120        1.0061662        306509.80
  7721.5250       0.99860301        306401.80
  7726.3570       0.99188608        306337.80
  7731.2080       0.98450462        306327.80
  7736.0780       0.97431271        302577.80
  7740.9670       0.96950322        310219.80
  7745.8750       0.96164935        306335.80
  7750.8030       0.95450378        306198.80
  7755.7500       0.94625957        306224.80
  7760.7150       0.93822345        306239.80
  7765.6990       0.93116908        306167.80
  7770.7030       0.92474016        306227.80
  7775.7260       0.91593779        305800.80
  7780.7670       0.90932417        306391.80
  7785.8280       0.90164592        306112.80
  7790.9080       0.89466823        306041.80
  7796.0070       0.88656079        306016.80
  7801.1250       0.88028741        305923.80
  7806.2620       0.87261136        305996.80
  7811.4180       0.86574942        305957.80
  7816.5940       0.85793196        305921.80
  7821.7880       0.85066839        305896.80
  7827.0010       0.84379985        305267.80
  7832.2340       0.83494943        306320.80
  7837.4850       0.82745655        305781.80
  7842.7560       0.82033629        305776.80
  7848.0460       0.81200903        305754.80
  7853.3540       0.80568673        305734.80
  7858.6830       0.79702432        305742.80
  7864.0300       0.78986933        305675.80
  7869.3960       0.78137093        305655.80
  7874.7810       0.77501390        305676.80
  7880.1850       0.76748161        305543.80
  7885.6080       0.75948480        305612.80
  7891.0510       0.75170020        305490.80
  7896.5120       0.74451288        305475.80
  7901.9920       0.73612907        305595.80
  7907.4920       0.72836705        305453.80
  7913.0110       0.72135875        305449.80
  7918.5480       0.71298144        305404.80
  7924.1050       0.70682830        305402.80
  7929.6810       0.69938319        305439.80
  7935.2760       0.69194845        305306.80
  7940.8900       0.68433408        304923.80
  7946.5230       0.67804154        305788.80
  7952.1750       0.67041573        305291.80
  7957.8470       0.66248932        305280.80
  7963.5370       0.65559665        305144.80
  7969.2470       0.64833533        305495.80
