# XDI/1.0
# Column.1: energy eV
# Column.2: i0
# Column.3: itrans
# Column.4: irefer
# Beamline.name: SSRL 2-3
# Beamline.notes: vert slits = 0.6mm
# Detector.I0: N2 15cm
# Detector.I1: Ar 30cm
# Detector.I2: Ar 15cm
# Element.edge: K
# Element.symbol: As
# Mono.d_spacing: 3.13550
# Mono.name: Si(111)
# Mono.notes: unfocused, detuned 75%, clockwise at E=12000eV
# Sample.formula: As2O5
# Sample.name: As2O5 arsenic (V) oxide
# Sample.prep: powder on tape (5 layers)
# Sample.reference: GaAs powder
# Sample.temperature: 100K
# Scan.start_time: 1997-04-19 21:41:34
# ///
#    Note: mono d_spacing is nominal!
#     exafs to K16, GaAs in IR
#     413  E XMU XMUR I0
#-------------
#   energy   i0   itrans  irefer
   11634.8900  528022.310000  93707.528850  38137.011331
   11644.9080  525794.310000  93674.507828  38353.001497
   11654.9440  522927.310000  93521.510419  38516.004946
   11664.9980  520666.310000  93454.469149  38715.988595
   11675.0700  517401.310000  93230.488837  38853.994950
   11684.8620  515143.310000  93143.483151  39025.993878
   11694.9690  511643.310000  92864.526061  39151.010070
   11705.0930  509653.310000  92833.513388  39365.004472
   11714.9370  507374.310000  92730.460907  39547.983832
   11725.0950  504831.310000  92632.526110  39738.012920
   11734.9740  502147.310000  92451.531449  39878.013139
   11744.8670  499119.310000  92221.488313  40011.994248
   11755.0790  496472.310000  92041.513736  40166.005821
   11765.0090  494119.310000  91929.502510  40351.001158
   11774.9540  491888.310000  91828.497389  40543.998962
   11784.9180  490068.310000  91793.527587  40753.013568
   11794.8960  486878.310000  91465.533208  40823.014982
   11804.8950  484415.310000  91282.456536  40957.982219
   11814.9090  481735.310000  91005.488131  41057.996413
   11824.9400  479696.310000  90795.544604  41165.022041
   11834.9890  477294.310000  90407.506705  41172.003666
   11845.0570  474899.310000  89706.461642  40978.982061
   11845.3610  474630.310000  89653.496976  40949.999835
   11845.9730  474229.310000  89536.465771  40897.984417
   11846.5830  474381.310000  89553.521289  40906.008108
   11846.8890  474168.310000  89484.492584  40877.996813
   11847.4990  473198.310000  89259.473499  40777.989413
   11848.1100  473165.310000  89224.513784  40763.004599
   11848.4150  473664.310000  89296.461662  40788.980700
   11849.0270  472723.310000  89069.525401  40684.010345
   11849.6370  472180.310000  88931.456858  40612.980219
   11849.9420  472045.310000  88865.498759  40585.999886
   11850.5560  472671.310000  88921.525256  40615.011598
   11850.8600  471836.310000  88727.522138  40517.011566
   11851.4710  471569.310000  88611.539360  40460.018550
   11852.0830  471215.310000  88489.519681  40395.008418
   11852.3900  471948.310000  88609.534694  40439.016217
   11853.0000  472342.310000  88560.501905  40400.002861
   11853.6100  471756.310000  88391.477788  40302.990006
   11853.9170  471870.310000  88349.468321  40281.986378
   11854.5290  472380.310000  88342.508583  40256.005700
   11855.1400  471926.310000  88134.481824  40145.993636
   11855.4460  472022.310000  88108.521310  40112.008424
   11856.0580  471886.310000  87939.500869  40008.002153
   11856.3630  471956.310000  87893.461630  39963.982770
   11856.9760  471684.310000  87675.537541  39821.016555
   11857.5880  471293.310000  87421.534201  39652.013913
   11857.8940  471151.310000  87310.461981  39581.981223
   11858.5040  471872.310000  87226.520541  39465.008531
   11859.1180  471668.310000  86943.458537  39257.982742
   11859.4240  470629.310000  86652.490390  39088.994491
   11860.0350  470868.310000  86405.510985  38849.004734
   11860.6470  471063.310000  86108.532045  38561.015351
   11860.9550  471039.310000  85967.520065  38429.010313
   11861.5660  470251.310000  85430.506325  37973.002774
   11861.8720  470243.310000  85220.519292  37754.007976
   11862.4840  470089.310000  84679.513232  37157.004430
   11863.0980  470109.310000  84120.495577  36446.999693
   11863.4030  469383.310000  83740.499608  36031.999792
   11864.0170  468840.310000  82906.479545  34835.992518
   11864.6280  469045.310000  82065.472483  33284.987636
   11864.9350  468983.310000  81588.488642  32421.996004
   11865.5470  468340.310000  80315.464766  30208.987812
   11865.8540  468363.310000  79793.520001  29284.000187
   11866.4670  469054.310000  78302.502376  26744.011024
   11867.0780  469358.310000  76348.506021  24232.009456
   11867.3880  468716.310000  75148.465941  23090.994723
   11867.9990  468619.310000  72293.464658  20924.981517
   11868.6110  468503.310000  68610.471356  18991.987254
   11868.9190  468520.310000  66884.513421  18282.008823
   11869.5320  468270.310000  61464.496452  16442.997697
   11870.1450  467774.310000  55040.481183  14617.989621
   11870.4510  467984.310000  51651.475876  13711.991881
   11871.0640  467797.310000  44009.481697  11715.996191
   11871.3710  467345.310000  40783.492595  10879.000879
   11871.9850  466886.310000  32459.487734  8733.994108
   11872.5990  466999.310000  24797.498475  6742.998991
   11872.9050  466905.310000  21674.500443  5926.000152
   11873.5180  466471.310000  16070.503611  4453.002189
   11874.1330  466153.310000  12519.501786  3523.999518
   11874.4390  466824.310000  11588.497103  3286.998956
   11875.0530  467347.310000  10721.495867  3105.999879
   11875.3580  466830.310000  10848.500089  3171.998496
   11875.9750  466568.310000  12051.503699  3598.001097
   11876.5880  466951.310000  14003.495696  4250.000034
   11876.8940  466882.310000  14932.502500  4554.998553
   11877.5090  466469.310000  17373.503015  5362.001022
   11878.1230  466114.310000  19934.500109  6206.002100
   11878.4300  466410.310000  21164.510381  6615.006236
   11879.0440  466569.310000  23571.505388  7410.001070
   11879.3510  466044.310000  24434.491384  7700.996341
   11879.9660  465746.310000  26488.510866  8393.999344
   11880.5800  466248.310000  28216.512220  8973.002494
   11880.8870  465774.310000  28852.487282  9192.998884
   11881.5000  465371.310000  29937.491854  9563.995729
   11882.1160  465263.310000  30678.512881  9811.002926
   11882.4240  465081.310000  30890.486323  9877.991983
   11883.0370  465079.310000  31266.491037  9999.998572
   11883.6520  464316.310000  31405.499552  10038.995130
   11883.9590  463731.310000  31433.503396  10047.997001
   11884.5740  463700.310000  31509.511730  10072.001644
   11884.8810  463999.310000  31553.485716  10079.998009
   11885.4960  463149.310000  31561.514598  10090.006574
   11886.1100  463122.310000  31632.503625  10124.003493
   11886.4190  463625.310000  31697.496546  10148.000636
   11887.0340  463681.310000  31812.506046  10191.005162
   11887.6480  463534.310000  31928.512073  10240.008053
   11887.9550  463151.310000  31972.488676  10257.999130
   11888.5720  463226.310000  32177.508837  10318.998649
   11888.8790  463810.310000  32323.504335  10368.005333
   11889.4930  463646.310000  32593.503802  10450.000211
   11890.1090  462810.310000  32875.485962  10526.998813
   11890.4170  462978.310000  33040.504118  10579.003198
   11891.0320  463136.310000  33446.509013  10701.002373
   11891.6480  463001.310000  33847.491270  10833.995084
   11891.9560  462724.310000  34029.487698  10884.997162
   11892.5700  462096.310000  34382.486885  11011.997195
   11892.8790  462501.310000  34577.507187  11077.005570
   11893.4950  462460.310000  34954.483267  11217.989971
   11894.1090  461784.310000  35267.502138  11354.997105
   11894.4190  461720.310000  35428.490688  11422.993733
   11895.0350  462186.310000  35790.485080  11585.995429
   11895.6490  461894.060000  36070.254746  11708.763253
   11896.2660  461696.340000  36304.525476  11823.042745
   11896.8810  461687.120000  36529.291011  11923.836123
   11897.4980  461987.440000  36763.580859  12018.158382
   11898.4220  462082.250000  37088.350052  12117.999455
   11899.0380  461111.590000  37287.646339  12178.353523
   11899.6550  461471.440000  37650.459808  12275.227006
   11900.5800  462056.810000  38316.738945  12473.617937
   11901.1950  462257.720000  38795.550843  12619.529459
   11902.1210  461760.090000  39485.893064  12834.969917
   11903.0450  462307.030000  40297.733934  13105.935739
   11903.6620  462701.470000  40808.078853  13274.409352
   11904.5870  463182.410000  41500.893228  13523.392323
   11905.5130  463269.870000  42152.279213  13753.904629
   11906.4380  463604.870000  42776.103454  13969.936337
   11907.3630  464226.370000  43402.511133  14185.485580
   11908.2910  465015.370000  43975.359197  14392.546362
   11909.2150  464869.910000  44409.775006  14537.152342
   11910.1430  465407.970000  44793.649439  14662.253112
   11911.0680  466016.530000  45058.070148  14742.892549
   11912.3030  467469.590000  45248.942445  14787.027831
   11913.2290  468252.220000  45190.373223  14748.702051
   11914.1560  468701.310000  44986.286545  14667.889252
   11915.3920  468923.940000  44531.712707  14522.593083
   11916.3180  470005.090000  44218.688852  14440.828749
   11917.5560  470750.750000  43626.107226  14293.555348
   11918.7930  471347.940000  42949.093721  14143.830860
   11919.7190  471919.620000  42439.548472  14025.620242
   11920.9570  473725.840000  41877.502843  13901.917187
   11922.1930  475077.560000  41377.989088  13771.745626
   11923.4320  475355.810000  40887.958124  13631.067974
   11924.6690  475818.560000  40510.475909  13527.945800
   11925.9080  476870.840000  40234.453409  13442.316496
   11927.1460  478075.620000  40007.979464  13366.223905
   11928.3840  479835.940000  39825.015851  13299.657112
   11929.6230  480397.750000  39522.510932  13192.578104
   11930.8610  481502.090000  39232.542642  13081.036315
   11932.4110  483553.970000  38902.088271  12933.022604
   11933.6510  485084.310000  38636.163298  12799.520520
   11934.8910  486410.220000  38412.707985  12697.540864
   11936.4410  487382.620000  38155.750563  12570.068624
   11937.9920  488364.530000  38011.323976  12505.119428
   11939.2320  489653.970000  37984.415530  12493.705506
   11940.7840  490756.940000  37937.989619  12494.792715
   11942.3360  491327.410000  37891.117898  12500.413558
   11943.5770  493050.370000  37991.685730  12559.537526
   11945.1300  495760.870000  38176.826428  12647.210709
   11946.6840  498708.910000  38390.444168  12731.377031
   11948.2370  500652.440000  38562.570421  12815.061102
   11949.7910  502518.470000  38745.181337  12897.266575
   11951.3460  503728.030000  38938.345064  12983.008959
   11952.8990  505437.120000  39195.997580  13093.260590
   11954.7670  506397.720000  39452.143028  13214.032967
   11956.3220  508873.840000  39821.785117  13372.309682
   11957.8780  510788.470000  40129.974605  13511.126774
   11959.7450  512908.620000  40489.662744  13638.445786
   11961.3010  514881.280000  40795.849562  13737.294352
   11963.1710  516347.440000  41061.538163  13823.663530
   11964.7290  518652.160000  41356.741636  13914.555444
   11966.5980  520663.340000  41635.436869  14016.954778
   11968.4700  522529.090000  41933.694017  14170.887116
   11970.0270  524992.310000  42279.384994  14344.313830
   11971.9000  527195.060000  42719.633389  14588.282134
   11973.7710  529190.370000  43207.376578  14844.764361
   11975.6440  531299.120000  43748.624711  15098.768393
   11977.5190  532973.440000  44281.394131  15316.299556
   11979.3920  535445.250000  44876.651294  15538.341952
   11981.2670  538268.620000  45456.404748  15751.895847
   11983.1410  539909.500000  45891.711936  15911.983951
   11985.0170  540906.870000  46199.506668  16015.581944
   11987.2060  542267.750000  46518.769818  16093.683779
   11989.0830  546389.120000  46989.604477  16215.334943
   11991.2730  549442.060000  47389.909532  16293.501168
   11993.1510  551729.500000  47708.705665  16351.160770
   11995.3440  554011.440000  48024.069654  16398.376505
   11997.2250  555913.940000  48272.908279  16441.086859
   11999.4170  558909.870000  48614.227054  16532.319553
   12001.2990  561649.370000  48897.083784  16639.073560
   12003.4940  564404.440000  49152.420211  16758.340702
   12005.6880  567866.940000  49445.306065  16892.151921
   12007.8860  569105.000000  49543.692221  16970.456026
   12010.0830  570287.560000  49626.587323  17040.293149
   12012.2820  571723.620000  49701.976096  17117.643116
   12014.4810  575801.250000  49979.831251  17267.507375
   12016.6820  580874.370000  50343.247696  17438.902786
   12018.8810  583445.000000  50516.155121  17546.810377
   12021.0830  585624.120000  50647.564788  17648.241564
   12023.6020  588983.810000  50862.539809  17789.202925
   12025.8040  591848.000000  50981.960026  17885.670207
   12028.0080  595296.690000  51110.907064  17975.647405
   12030.5270  597884.870000  51115.368751  18027.172633
   12032.7330  601325.620000  51214.289496  18103.179482
   12035.2570  604221.870000  51273.777668  18167.739475
   12037.7800  607116.620000  51371.775035  18247.806806
   12039.9890  609730.870000  51518.226779  18331.385823
   12042.5140  612541.690000  51758.206817  18451.487774
   12045.0400  615902.000000  52134.705528  18631.111785
   12047.5660  618890.810000  52544.732777  18817.247316
   12050.0960  620751.120000  52876.247404  18971.924504
   12052.6250  623856.000000  53293.244191  19133.095275
   12055.1540  625133.370000  53517.784487  19200.801424
   12057.6880  628537.250000  53868.844915  19300.023130
   12060.2210  634714.690000  54499.394463  19522.772229
   12062.7540  637656.620000  54862.438021  19668.019191
   12065.2880  640759.060000  55195.007471  19824.816368
   12068.1420  644372.000000  55605.059710  20021.109643
   12070.6780  647371.440000  55966.607912  20154.915934
   12073.2180  651363.440000  56436.706202  20314.253164
   12076.0730  653611.940000  56786.283644  20416.100126
   12078.6150  658937.940000  57359.378266  20595.474292
   12081.4730  660693.500000  57632.004146  20662.387964
   12084.3350  664289.560000  58055.133624  20812.799099
   12086.8780  667038.120000  58398.733077  20939.727578
   12089.7420  672076.190000  58959.850489  21162.181816
   12092.6060  675097.810000  59355.487934  21364.156419
   12095.4740  678970.870000  59842.686376  21623.663022
   12098.3400  681155.560000  60181.302167  21824.664053
   12101.2090  684340.690000  60611.453594  22064.188810
   12104.0800  687770.310000  61057.126776  22289.237317
   12106.9520  691794.500000  61574.322814  22547.832604
   12109.8250  695153.190000  62022.004821  22781.919991
   12112.6970  698310.440000  62466.209362  23029.528961
   12115.8940  703212.120000  63028.914519  23335.658110
   12118.7710  706127.370000  63393.075231  23555.290195
   12121.6500  710935.190000  63966.804707  23847.463807
   12124.8500  713914.440000  64386.058273  24097.160771
   12127.7310  717944.250000  64898.786127  24356.367633
   12130.9360  722485.560000  65478.014750  24622.088181
   12133.8190  725612.370000  65919.740343  24814.328455
   12137.0270  728761.690000  66334.012766  24981.100993
   12140.2350  732730.560000  66802.803555  25163.394746
   12143.4450  737478.940000  67339.065202  25344.198096
   12146.3370  740909.810000  67720.836125  25502.515746
   12149.5510  744242.250000  68079.121938  25637.360616
   12152.7650  747383.120000  68372.926292  25767.724794
   12155.9810  752187.560000  68759.211137  25920.602291
   12159.2000  756012.560000  69098.981406  26067.989086
   12162.4210  760590.000000  69541.343617  26275.925714
   12165.6420  762900.000000  69790.155497  26421.359661
   12169.1890  767211.500000  70205.489995  26613.321881
   12172.4150  772297.500000  70747.332914  26883.801715
   12175.6430  775957.060000  71240.692825  27134.803980
   12178.8720  780842.060000  71874.525796  27417.313721
   12182.4260  784060.690000  72388.860573  27656.338109
   12185.6580  788327.750000  72882.745939  27872.901092
   12189.2180  792159.310000  73333.132612  28109.981325
   12192.4520  796208.440000  73773.014744  28334.572747
   12196.0160  800811.060000  74262.420198  28600.692737
   12199.5790  803661.250000  74630.319298  28813.327760
   12202.8220  808113.870000  75191.709345  29095.472469
   12206.3900  811241.060000  75711.665321  29357.159387
   12209.9610  816063.750000  76434.065241  29719.341919
   12213.5340  820336.000000  77058.973046  30056.042203
   12217.1070  823823.690000  77513.455339  30340.293227
   12220.6860  828166.940000  77992.350582  30628.019270
   12224.2630  832480.690000  78428.864276  30918.314989
   12227.8450  837420.000000  78966.817829  31210.099262
   12231.4270  841181.810000  79510.240106  31511.388486
   12235.0130  845711.060000  80131.237925  31830.223553
   12238.9270  849361.940000  80671.746510  32113.580486
   12242.5160  854242.250000  81308.764784  32444.457219
   12246.1080  857402.120000  81812.253179  32689.836747
   12250.0290  861792.500000  82425.225307  32962.726478
   12253.6250  866088.370000  82966.751835  33202.157118
   12257.5500  867524.750000  83221.775777  33322.103371
   12261.1520  873983.690000  83976.308228  33652.569547
   12265.0810  877157.120000  84500.388547  33916.561420
   12269.0160  879268.060000  84915.938759  34134.066779
   12272.6230  886640.560000  85783.927954  34545.063809
   12276.5610  891233.560000  86394.543990  34823.624645
   12280.5020  895279.060000  87017.606223  35149.685420
   12284.4450  900185.060000  87763.207550  35517.273813
   12288.3910  904454.620000  88443.252549  35881.352523
   12292.3380  909114.620000  89111.837397  36241.971497
   12296.2890  912516.250000  89653.917205  36562.100320
   12300.2430  917072.310000  90311.546829  36933.766876
   12304.1980  921479.870000  90925.722055  37270.962270
   12308.1580  925011.000000  91421.312474  37579.648078
   12312.1190  929564.620000  91987.465757  37892.872207
   12316.0840  933640.810000  92483.087737  38202.600627
   12320.3800  937265.440000  92992.284673  38521.877598
   12324.3490  939986.620000  93414.879421  38790.626839
   12328.6520  947001.310000  94320.020776  39276.912439
   12332.6270  950747.560000  94871.712135  39612.731947
   12336.6040  954479.250000  95396.882889  39945.059752
   12340.9150  959440.500000  96112.588587  40346.921709
   12345.2290  963623.250000  96723.790764  40727.294683
   12349.2150  965838.560000  97107.508334  40971.188415
   12353.5360  971393.370000  97854.678403  41362.584026
   12357.8590  975529.690000  98477.450720  41717.537138
   12362.1870  980034.500000  99150.686136  42089.991260
   12366.1830  983944.810000  99687.351974  42402.927645
   12370.5150  988338.690000  100351.642483  42797.438071
   12374.8510  992635.060000  101038.343550  43202.423098
   12379.1890  996897.940000  101704.687925  43557.991911
   12383.5320  1000410.400000  102263.375161  43875.004958
   12387.8760  1005048.200000  102893.634464  44221.561175
   12392.5600  1007388.700000  103344.474036  44502.671285
   12396.9110  1013108.700000  104110.809046  44915.295939
   12401.2650  1017359.100000  104742.549635  45263.394214
   12405.6210  1022352.100000  105464.903780  45677.061346
   12410.3170  1025230.600000  105990.645676  45998.194323
   12414.6820  1029927.600000  106740.941086  46404.868927
   12419.0490  1034666.200000  107526.802450  46852.081729
   12423.7550  1038713.300000  108296.194471  47317.831635
   12428.1290  1043333.800000  109069.952468  47771.032548
   12432.8420  1044774.900000  109451.303615  48076.795299
   12437.5600  1049247.500000  110133.197493  48517.090609
   12441.9420  1054480.600000  110885.551564  48975.883447
   12446.6660  1057911.300000  111450.413663  49371.195717
   12451.3950  1060457.400000  111893.844343  49718.052845
   12456.1250  1067365.000000  112797.736616  50256.413639
   12460.5220  1069548.300000  113236.175786  50580.305886
   12465.2610  1072633.900000  113863.059228  50978.694549
   12470.0030  1076911.100000  114603.475340  51462.615407
