# XDI/1.0
# Column.1: energy eV
# Column.2: i0
# Column.3: itrans
# Column.4: irefer
# Beamline.name: SSRL 4-1
# Detector.I0: N2 15cm
# Detector.I1: N2 30cm
# Detector.I2: Ar 15cm
# Element.edge: K
# Element.symbol: As
# Mono.d_spacing: 3.13550
# Mono.name: Si(111)
# Mono.notes: unfocused, detuned 40%,counter clockwise at E=12000eV
# Sample.formula: As2O3
# Sample.name: As2O3 arsenious oxide
# Sample.prep: powder, mixed 1:60 with B(OH)3 by wt
# Sample.reference: GaAs powder
# Sample.temperature: room temperature
# Scan.start_time: 1997-01-19 14:12:16
# ///
#    Note: mono d_spacing is nominal!
#     exafs to K15, GaAs in IR
#     320  E XMU XMUR I0
#-------------
#   energy   i0   itrans  irefer
   11649.9940  176131.340000  276780.249084  321036.931121
   11660.0050  176245.340000  277636.249430  322908.952159
   11669.9970  175938.340000  277867.253081  324040.948720
   11680.0060  175406.340000  277719.253865  324756.939880
   11689.9960  174944.340000  277666.253691  325578.944800
   11700.0050  175022.340000  278486.232289  327394.911583
   11709.9940  174176.340000  277839.257019  327510.931878
   11720.0020  173644.340000  277690.250137  328199.936232
   11730.0030  173516.340000  278138.244824  329622.932913
   11739.9950  172649.340000  277451.238621  329664.938595
   11749.9960  172062.340000  277174.245350  330205.917739
   11760.0000  171655.340000  277194.251464  331094.929137
   11769.9970  170650.340000  276190.230083  330782.899598
   11779.9990  170713.340000  276928.230112  332548.919485
   11789.9960  169596.340000  275770.236602  331973.930398
   11799.9980  169555.340000  276298.240328  333443.942646
   11810.0030  169402.340000  276625.248191  334622.923237
   11820.0020  169296.340000  276906.241479  335738.932208
   11829.9940  168578.340000  276067.242300  335364.925090
   11840.0030  167199.340000  273857.241250  333049.941521
   11850.0040  167686.340000  273764.243419  332543.942924
   11850.7620  166923.340000  272323.245998  330683.943291
   11851.5200  166888.340000  272053.235538  330224.909427
   11852.2780  167533.340000  272912.239436  331144.910695
   11853.0360  167434.340000  272522.253343  330477.928335
   11853.7820  167514.340000  272328.255276  330058.944940
   11854.5410  166082.340000  269675.231708  326591.903339
   11855.2990  166553.340000  270094.235500  326789.920170
   11856.0580  165998.340000  268698.246116  324744.944577
   11856.8150  166510.340000  269030.245368  324725.921993
   11857.5750  166070.340000  267773.248194  322732.928209
   11858.3340  166226.340000  267288.247204  321486.950561
   11859.0930  166532.340000  266860.253111  320156.943754
   11859.8530  166016.340000  265062.253495  317046.933222
   11860.6110  166249.340000  264079.239994  314494.915665
   11861.3570  165821.340000  261726.232597  309864.914772
   11862.1180  165954.340000  260038.238220  305668.930654
   11862.8770  165964.340000  257471.245525  299208.946184
   11863.6370  165354.340000  252617.247238  287779.938732
   11864.3960  165947.340000  248840.246219  275711.935610
   11865.1550  165623.340000  241175.232250  256163.933316
   11865.9030  166130.340000  231142.235930  232007.938786
   11866.6630  166613.340000  217426.246953  205963.951046
   11867.4230  166672.340000  199130.253175  177205.955970
   11868.1830  166602.340000  175965.245230  145457.944741
   11868.9430  166620.340000  153962.246709  118911.952122
   11869.7030  165893.340000  137155.243940  101872.950312
   11870.4510  165912.340000  124613.241975  91386.948841
   11871.2130  166452.340000  119295.251131  87945.950085
   11871.9730  165831.340000  120379.246621  89395.947195
   11872.7210  166265.340000  128274.249482  96129.952308
   11873.4820  166655.340000  139883.250184  106112.955795
   11874.2430  166017.340000  148929.246987  114542.947584
   11875.0040  165583.340000  156656.246642  122383.944982
   11875.7540  165096.340000  163319.246418  129720.956151
   11876.5150  164833.340000  168335.245987  135616.954766
   11877.2750  165981.340000  173206.245059  141377.943170
   11878.0250  166135.340000  175163.244948  144859.943304
   11878.7860  166680.340000  175321.244923  146534.951441
   11879.5480  166044.340000  172960.245125  145680.952124
   11880.3090  164780.340000  169213.246691  143445.953593
   11881.0600  165717.340000  167979.245975  143095.943079
   11881.8200  165077.340000  166126.245996  141924.952923
   11882.5820  164778.340000  165588.245938  141756.948499
   11883.3330  165481.340000  167291.245625  143281.951697
   11884.0950  165485.340000  168777.245382  144500.948397
   11884.8450  166084.340000  171039.246458  146394.955157
   11885.6070  165305.340000  171894.246056  147165.946704
   11886.3570  165861.340000  173832.245543  148889.947863
   11887.1200  165287.340000  174536.246058  149602.942411
   11887.8820  165976.340000  176777.245161  151584.941542
   11888.6340  164439.340000  176647.245093  151465.954724
   11889.3960  165455.340000  179219.245127  153604.941199
   11890.1460  165241.340000  180703.246181  154752.948069
   11890.9100  165338.340000  182516.246295  156210.942576
   11891.6730  165119.340000  183663.244016  157145.949031
   11892.4230  165114.340000  185145.241011  158447.942931
   11893.1880  165602.340000  187129.253315  160340.947880
   11893.9380  164984.340000  187472.236099  160937.945709
   11894.7010  164646.340000  187926.246424  161786.955398
   11895.4520  164272.340000  188027.242697  162402.944755
   11896.2160  164940.340000  189024.253601  163750.959290
   11896.9680  165445.340000  189738.245747  164726.952260
   11897.7310  164926.340000  189291.252983  164592.948973
   11898.4840  164310.340000  188792.241048  164180.947289
   11899.2480  164499.340000  189232.242696  164448.945123
   11900.0000  165557.340000  190706.252672  165541.960438
   11901.2820  165409.340000  191083.221949  165543.938691
   11902.5780  164515.330000  190746.201669  165061.949896
   11903.8960  164652.300000  191564.138177  165805.941558
   11905.2290  165160.250000  192738.069579  167025.937495
   11906.5740  164153.190000  191935.960476  166522.923264
   11907.9560  166487.120000  194796.816578  169186.904748
   11909.3520  165259.050000  193026.665532  167709.906987
   11910.7590  164436.940000  191188.461931  166021.874413
   11912.1910  165456.840000  191271.268680  165884.866979
   11913.6380  165301.720000  189886.041397  164374.836803
   11915.1070  165025.580000  188511.778847  163018.809880
   11916.5920  166026.440000  189000.498530  163558.782674
   11918.1010  165544.280000  187904.210037  163171.763844
   11919.6330  165615.110000  187554.877343  163623.716779
   11921.1800  164714.920000  185960.506780  162931.671885
   11922.7390  165958.730000  186500.131278  163961.647372
   11924.3230  166417.520000  186027.741661  163849.612686
   11925.9330  166829.300000  185499.323283  163549.587852
   11927.5550  166759.060000  184598.854392  162822.526987
   11929.1890  166599.810000  183884.387124  162112.482267
   11930.8510  167397.560000  184359.888320  162276.433732
   11932.5360  166272.280000  182786.373970  160417.391537
   11934.2330  167914.000000  184346.827160  161226.323449
   11935.9580  168042.700000  184415.247311  160636.282395
   11937.6950  168224.390000  184566.655189  160211.220535
   11939.4430  168850.060000  185129.043098  160415.145161
   11941.2190  169012.730000  185080.387464  160382.110318
   11943.0200  169252.390000  185139.732876  160657.031363
   11944.8330  170531.020000  186470.034949  162125.974864
   11946.6590  169885.640000  185993.326642  161962.899699
   11948.5110  171168.270000  187908.581838  163887.837759
   11950.3870  171123.860000  188618.814088  164779.764513
   11952.2780  171688.450000  190002.018759  166193.670348
   11954.1930  172288.030000  191244.223680  167559.610120
   11956.1100  173129.590000  192675.377174  169160.537358
   11958.0630  174374.140000  194549.517757  171237.438164
   11960.0310  173236.670000  193784.631265  170812.368574
   11962.0120  173607.200000  194715.725316  171582.272742
   11964.0190  175065.720000  196827.782576  173278.191491
   11966.0500  175350.220000  197523.829196  173778.088397
   11968.0950  174775.700000  197290.850328  173702.998833
   11970.1520  176261.170000  199357.822995  176084.891280
   11972.2360  177346.640000  200964.793390  178407.798981
   11974.3340  178499.080000  202626.735914  180965.706623
   11976.4560  178524.520000  203009.658907  182159.587768
   11978.5930  179653.940000  204759.566577  184240.495485
   11980.7540  180381.360000  206129.430801  185666.374258
   11982.9290  180902.750000  207279.265774  186786.264776
   11985.1300  181886.140000  208918.095356  188207.162983
   11987.3450  182428.520000  209931.885862  188822.047719
   11989.5850  182745.870000  210601.663640  188858.923380
   11991.8370  183753.220000  211962.412993  189375.792628
   11994.1040  184094.550000  212503.144165  189057.685793
   11996.3960  185410.870000  214096.828305  189634.546671
   11998.7150  185364.190000  213973.523313  188788.451612
   12001.0470  187287.480000  216028.158493  190229.276405
   12003.3930  189197.770000  217956.798270  191948.166624
   12005.7650  188809.030000  217174.413805  191537.034383
   12008.1490  189248.300000  217277.993446  192051.911802
   12010.5610  190028.550000  217834.526984  192893.770225
   12012.9850  191307.780000  219018.071511  194375.634012
   12015.4370  192254.000000  219874.584734  195673.492275
   12017.9000  193670.200000  221318.051152  197479.328378
   12020.3790  195045.410000  222787.522479  199219.195458
   12022.8830  194435.580000  221956.940194  199030.026439
   12025.4010  195844.750000  223490.353830  200992.893864
   12027.9450  197001.910000  224784.737970  202699.730544
   12030.5020  196998.050000  224745.090808  203135.578442
   12033.0870  199196.190000  227290.450783  205858.417429
   12035.6860  199797.310000  228139.755220  206998.254872
   12038.3100  201331.410000  230161.044238  209192.105788
   12040.9480  202759.500000  232126.306394  211355.930695
   12043.6010  203276.590000  233157.517046  212601.736539
   12046.2780  203927.660000  234297.745482  213967.574628
   12048.9710  205682.720000  236768.930158  216594.399388
   12051.6880  207357.750000  239173.101160  219047.226439
   12054.4210  209445.780000  242059.242323  221619.039429
   12057.1690  209333.800000  242339.371927  221516.871769
   12059.9400  210256.810000  243786.462477  222415.681079
   12062.7290  211783.800000  245785.534078  224174.503711
   12065.5430  213420.780000  247907.578643  226304.312710
   12068.3690  215140.750000  250078.599162  228604.129408
   12071.2110  215281.700000  250396.585532  229018.929814
   12074.0800  216676.640000  252291.560273  230508.747986
   12076.9770  217111.580000  253105.529634  230841.559351
   12079.8720  218993.500000  255650.441632  232682.347746
   12082.7960  219487.390000  256586.331266  233141.128546
   12085.7460  221514.280000  259314.226726  235347.945188
   12088.7120  224355.170000  262971.056951  238535.729065
   12091.6910  224726.030000  263730.887004  239364.540952
   12094.6960  225030.890000  264328.693981  240486.318855
   12097.7040  225848.720000  265522.476568  242278.115673
   12100.7500  228222.550000  268561.234493  245798.904285
   12103.8120  228535.370000  269297.923883  247182.658266
   12106.8890  231122.170000  272706.641778  250909.439488
   12109.9780  232363.970000  274573.333571  253223.224130
   12113.0960  232858.730000  275586.005810  254852.004120
   12116.2390  234840.500000  278302.613742  258201.771746
   12119.3870  235333.250000  279213.213126  259864.542461
   12122.5600  237581.000000  282156.820648  263363.321115
   12125.7460  239485.720000  284666.377940  266442.097773
   12128.9620  240570.440000  286116.919430  268414.856721
   12132.1920  241946.140000  287891.403948  270439.623326
   12135.4490  243885.830000  290255.916915  272805.385121
   12138.7210  244988.500000  291567.363194  273971.114875
   12142.0080  246325.160000  293071.806320  275104.867615
   12145.3090  248110.810000  295122.215651  276746.620710
   12148.6380  248849.450000  295924.630477  277249.381430
   12151.9800  251497.080000  299011.961957  280012.117532
   12155.3510  252548.690000  300316.302774  281105.864902
   12158.7370  254338.300000  302576.630877  283224.630631
   12162.1370  255288.870000  303994.931183  284682.338683
   12165.5530  257892.450000  307509.179104  288175.084452
   12168.9950  258769.020000  309035.435750  289905.842471
   12172.4530  261621.560000  313013.660103  293982.567713
   12175.9390  261644.090000  313692.825744  295005.294943
   12179.4410  264507.620000  317738.036902  299139.036390
   12182.9560  266836.120000  321222.165207  302555.758827
   12186.4990  267593.620000  322742.272389  304136.461261
   12190.0450  268532.120000  324411.358128  306064.172603
   12193.6320  270732.590000  327605.480457  309573.917062
   12197.2210  273021.060000  330771.510057  313124.634655
   12200.8380  274567.500000  333045.538326  315713.350224
   12204.4710  275570.940000  334559.550094  317633.080251
   12208.1160  276405.340000  335813.488312  319373.770592
   12211.7930  279639.780000  340021.474163  324016.475535
   12215.4830  280218.160000  340925.385555  325665.197678
   12219.1890  282849.560000  344310.293295  329810.918562
   12222.9230  283496.910000  345345.209373  331653.614231
   12226.6720  284498.280000  346809.038748  333852.289401
   12230.4380  287474.620000  350797.831214  338318.986705
   12234.2180  288680.970000  352659.664388  340641.695429
   12238.0250  291094.280000  356079.421814  344494.360753
   12241.8500  292388.590000  358186.215153  347001.060184
   12245.6890  295301.870000  362347.943930  351346.754818
   12249.5580  296985.160000  365088.675709  353988.455572
   12253.4430  298867.440000  368054.354829  356713.136874
   12257.3410  300641.690000  370894.018357  359313.830755
   12261.2570  302225.940000  373525.615051  361851.458995
   12265.2010  304008.190000  376310.252145  364728.157392
   12269.1580  306393.410000  379803.847934  368387.815527
   12273.1360  308641.590000  383034.399386  371753.492770
   12277.1260  310131.780000  385297.939534  374211.158842
   12281.1460  313396.970000  389662.453970  378761.860703
   12285.1820  314663.160000  391548.947574  381022.509467
   12289.2320  315865.310000  393278.412005  383245.163720
   12293.3130  318469.440000  396722.847850  387306.818137
   12297.3970  319590.560000  398322.260154  389507.478949
   12301.5080  320436.690000  399587.642550  391417.111124
   12305.6500  323255.810000  403338.028674  395750.780591
   12309.7950  325933.910000  406980.360815  399957.423724
   12313.9700  326727.970000  408323.694471  401939.069473
   12318.1580  330018.030000  412876.984125  407071.705019
   12322.3640  332365.090000  416292.248232  411170.373802
   12326.5860  333476.120000  418284.473053  413846.974462
   12330.8240  334239.160000  419842.728266  416160.664999
   12335.0920  336629.190000  423572.926222  420619.269335
   12339.3770  339428.190000  427816.090306  425591.902467
   12343.6890  340242.190000  429578.238889  428071.520057
   12348.0070  343402.160000  434317.371889  433377.152787
   12352.3530  345667.120000  437837.453618  437578.797624
   12356.7020  346779.090000  439646.567730  440134.442761
   12361.0800  351185.030000  446322.611886  446814.017843
   12365.4890  352406.940000  448542.657024  449036.656804
   12369.9020  352838.870000  449718.662948  451216.287990
   12374.3440  355942.780000  454114.644731  456330.925714
   12378.8030  356623.660000  455470.591764  458138.497678
   12383.2780  359887.530000  460153.516796  463169.110552
   12387.7700  361502.410000  462639.442238  466068.723346
   12392.2790  362641.250000  464570.328448  468404.359348
   12396.8160  364871.090000  467868.144228  472205.925895
   12401.3710  366647.910000  470658.987746  475457.517057
   12405.9430  369190.720000  474466.809333  479835.120956
   12410.5320  371341.530000  477885.615235  483816.738322
   12415.1390  374350.310000  482344.368675  489000.306752
   12419.7620  377478.090000  487122.108245  494510.921750
   12424.4150  378833.870000  489630.816421  497787.501056
   12429.0850  381389.620000  493723.516483  502733.112218
   12433.7720  381979.340000  495299.149957  505140.684362
   12438.4760  384103.090000  498802.826355  509609.262493
   12443.1970  384787.780000  500491.422893  512259.827309
   12447.9370  389434.500000  507311.993872  520260.400725
   12452.7050  391388.190000  510641.603322  524538.008187
   12457.4910  395011.840000  515985.125820  530928.562947
   12462.2810  395840.530000  517712.634219  533562.101620
   12467.1030  397514.160000  520555.107235  537356.671142
   12471.9400  398014.810000  521742.627563  539504.251789
   12476.8110  400635.440000  525725.065339  544450.814403
   12481.6830  404503.030000  531295.480645  550993.353904
   12486.5740  405026.620000  532511.872623  552972.937848
   12491.4960  407548.220000  536397.267350  557663.518452
   12496.4350  408579.780000  538303.644057  560355.080499
   12501.3790  411478.340000  542717.909921  565620.598087
   12506.3530  412955.910000  545323.246570  569018.184215
   12511.3450  416309.440000  550477.525600  575088.717327
   12516.3540  418915.970000  554692.746692  580246.249119
   12521.3960  419288.470000  556002.980911  582440.791970
   12526.4390  421753.970000  560101.173593  587508.359317
   12531.5040  424772.470000  565026.402905  593381.903358
   12536.5990  427626.940000  569770.518119  599148.457696
   12541.7110  429675.370000  573391.637956  603712.952085
   12546.8270  432671.840000  578317.754208  609738.505275
   12551.9750  433831.280000  580791.833571  613178.020704
   12557.1420  437839.690000  587042.863710  620647.550208
   12562.3270  438528.090000  588813.955690  623459.083490
   12567.5300  441087.500000  593094.928791  628910.551090
   12572.7510  441837.870000  594920.929330  631792.112951
   12577.9900  445995.250000  601306.869106  639549.621191
   12583.2600  447042.590000  603458.799966  642862.114099
   12588.5360  449174.940000  607115.730835  647831.604668
   12593.8300  450467.280000  609625.627896  651579.192967
   12599.1560  453065.590000  613898.500155  657358.686376
   12604.4860  455827.910000  618460.328271  663317.207155
   12609.8500  457521.220000  621597.120196  667848.683489
   12615.2170  462983.500000  629890.954496  677892.205459
   12620.6160  463776.750000  631822.685711  681051.688533
   12626.0210  465417.030000  635001.424614  685526.175203
   12631.4580  466297.250000  637157.135895  688913.698022
   12636.9140  469632.500000  642713.832067  695950.205502
   12642.3890  471308.720000  645999.503867  700497.632312
   12647.8670  473982.910000  650658.200174  706516.139519
   12653.3800  474741.090000  652687.713758  709716.583195
   12658.9100  477419.280000  657347.368875  715765.120044
   12664.4600  480820.470000  663038.963669  722906.590842
   12670.0270  481843.620000  665375.485778  726474.048840
   12675.6160  484118.750000  669472.994743  731970.555088
   12681.2220  488513.870000  676492.502060  740690.999883
   12686.8480  489792.000000  679148.977825  744681.478403
   12692.4790  491441.090000  682320.422229  749244.919074
   12698.1440  493613.190000  686170.880933  754678.442291
   12703.8250  496418.280000  691064.234217  761109.858227
   12709.5280  497712.340000  693699.645671  765230.334693
   12715.2500  501126.410000  699368.010175  772686.825337

