# XDI/1.0
# Column.1: energy eV
# Column.2: i0
# Column.3: itrans
# Column.4: irefer
# Beamline.name: SSRL 2-3
# Beamline.notes: vert slits = 0.6mm
# Detector.I0: N2 15cm
# Detector.I1: Ar 30cm
# Detector.I2: Ar 15cm
# Element.edge: K
# Element.symbol: As
# Mono.d_spacing: 3.13550
# Mono.name: Si(111)
# Mono.notes: unfocused, detuned 75%, clockwise at E=12000eV
# Sample.formula: As2S3
# Sample.name: As2S3 arsenious sulfide (orpiment)
# Sample.prep: powder on tape (5 layers)
# Sample.reference: GaAs powder
# Sample.temperature: 100K
# Scan.start_time: 1997-04-19 22:41:20
# ///
#    Note: mono d_spacing is nominal!
#     exafs to K16, GaAs in IR
#     413  E XMU XMUR I0
#-------------
#   energy   i0   itrans  irefer
   11634.8900  516546.310000  92236.501381  37653.000504
   11644.9080  513485.310000  92039.462138  37779.983350
   11654.9440  510722.310000  91877.486199  37956.995361
   11664.9980  508149.310000  91764.482484  38132.991334
   11675.0700  506275.310000  91754.507357  38358.003883
   11684.8620  503630.310000  91598.462538  38510.983527
   11694.9690  500118.310000  91323.458242  38615.984248
   11705.0930  498223.310000  91298.502927  38834.001499
   11714.9370  495455.310000  91118.527407  38985.011743
   11725.0950  493347.310000  91037.490826  39171.996197
   11734.9740  491038.310000  90940.472961  39357.987850
   11744.8670  488365.310000  90758.461809  39493.982237
   11755.0790  485997.310000  90659.532503  39690.012785
   11765.0090  483055.310000  90418.524239  39806.012175
   11774.9540  480602.310000  90285.523304  39975.010836
   11784.9180  478834.310000  90253.522726  40185.009555
   11794.8960  476031.310000  90016.467821  40299.986315
   11804.8950  473829.310000  89884.467510  40447.985958
   11814.9090  470667.310000  89529.528321  40514.012270
   11824.9400  469218.310000  89468.458117  40687.980926
   11834.9890  466047.310000  89014.488852  40659.993672
   11845.0570  464174.310000  88494.477575  40540.989543
   11845.3610  463333.310000  88323.542106  40454.018648
   11845.9730  463412.310000  88301.507167  40449.002219
   11846.5830  463169.310000  88227.496629  40417.997465
   11846.8890  463543.310000  88286.465905  40441.982729
   11847.4990  463110.310000  88155.497858  40391.997201
   11848.1100  462835.310000  88070.469947  40345.985139
   11848.4150  462691.310000  88033.472781  40324.987526
   11849.0270  462503.310000  87952.483963  40285.991928
   11849.6370  462318.310000  87854.464817  40243.984389
   11849.9420  461612.310000  87693.465153  40157.984322
   11850.5560  461334.310000  87561.461555  40090.983737
   11850.8600  461843.310000  87645.535779  40125.015900
   11851.4710  461710.310000  87555.480893  40076.990225
   11852.0830  461749.310000  87444.484116  40012.992936
   11852.3900  461648.310000  87428.504456  40015.003346
   11853.0000  462288.310000  87440.515915  39999.007610
   11853.6100  462033.310000  87283.460417  39912.980151
   11853.9170  461640.310000  87139.478676  39838.988290
   11854.5290  461260.310000  86943.505652  39718.002461
   11855.1400  461827.310000  86895.481409  39673.990955
   11855.4460  461900.310000  86845.535668  39633.015220
   11856.0580  461174.310000  86500.490490  39452.995830
   11856.3630  461516.310000  86458.488291  39406.993265
   11856.9760  461582.310000  86228.469110  39259.984390
   11857.5880  461293.310000  85889.457193  39046.982008
   11857.8940  460822.310000  85665.529687  38927.012719
   11858.5040  460683.310000  85235.485517  38660.992416
   11859.1180  460999.310000  84847.501592  38397.000565
   11859.4240  460552.310000  84549.523800  38206.010385
   11860.0350  460674.310000  83965.525796  37827.010367
   11860.6470  460481.310000  83145.515252  37313.006610
   11860.9550  460450.310000  82780.534686  37062.017029
   11861.5660  460363.310000  81653.524309  36343.009772
   11861.8720  459815.310000  80933.506397  35905.001698
   11862.4840  459228.310000  79138.500932  34770.001661
   11863.0980  459377.310000  76867.479871  33329.990208
   11863.4030  458927.310000  75656.535782  32582.014429
   11864.0170  458297.310000  71893.519029  30310.006999
   11864.6280  458479.310000  66773.491321  27332.997318
   11864.9350  459029.310000  63852.520960  25697.007983
   11865.5470  458819.310000  56409.493704  21789.998332
   11865.8540  458341.310000  52990.525049  20081.008646
   11866.4670  458779.310000  44287.491946  15891.991265
   11867.0780  458822.310000  35747.488357  11998.000500
   11867.3880  458713.310000  32300.490568  10468.999043
   11867.9990  458480.310000  26941.486467  8094.998051
   11868.6110  459080.310000  24535.502789  6894.997592
   11868.9190  459038.310000  24421.494597  6733.995622
   11869.5320  458732.310000  26010.487896  6979.999445
   11870.1450  458059.310000  29586.485128  7904.993699
   11870.4510  458052.310000  31752.497751  8503.002969
   11871.0640  457942.310000  36427.508436  9833.001374
   11871.3710  457443.310000  38178.516590  10344.003341
   11871.9850  457020.310000  42235.488693  11561.999691
   11872.5990  456909.310000  45189.507494  12504.004147
   11872.9050  456841.310000  46137.500893  12823.995799
   11873.5180  456781.310000  47278.504526  13289.001556
   11874.1330  456756.310000  47429.481606  13488.992873
   11874.4390  456660.310000  47274.489234  13528.002689
   11875.0530  456928.310000  46717.485091  13588.998176
   11875.3580  456814.310000  46405.499897  13604.994724
   11875.9750  456656.310000  45838.486327  13683.997044
   11876.5880  456762.310000  45541.506741  13826.003714
   11876.8940  456705.310000  45496.497593  13891.002759
   11877.5090  456531.310000  45479.482253  14077.999853
   11878.1230  456360.310000  45673.517813  14282.009253
   11878.4300  456568.310000  45829.515528  14383.997838
   11879.0440  456482.310000  46092.486216  14564.993555
   11879.3510  456119.310000  46177.488620  14622.002576
   11879.9660  456169.310000  46470.515419  14787.999902
   11880.5800  456343.310000  46734.488274  14926.996200
   11880.8870  455984.310000  46807.497872  14976.995657
   11881.5000  455477.310000  46964.495534  15056.998535
   11882.1160  455209.310000  47130.499308  15119.999462
   11882.4240  455066.310000  47205.487414  15149.994132
   11883.0370  455105.310000  47388.512297  15199.003139
   11883.6520  454503.310000  47481.501654  15225.005827
   11883.9590  454099.310000  47511.506253  15228.001220
   11884.5740  453948.310000  47646.507709  15268.003085
   11884.8810  453909.310000  47695.517483  15289.012305
   11885.4960  453460.310000  47775.489997  15330.997303
   11886.1100  453298.310000  47875.477901  15371.996265
   11886.4190  453586.310000  47972.482784  15411.986814
   11887.0340  453732.310000  48110.497599  15469.005837
   11887.6480  453820.310000  48262.522449  15528.007467
   11887.9550  453441.310000  48285.477643  15533.994960
   11888.5720  454050.310000  48508.498378  15613.001660
   11888.8790  453877.310000  48576.502155  15622.995810
   11889.4930  453956.310000  48750.475924  15667.992857
   11890.1090  453619.310000  48903.517287  15717.006176
   11890.4170  453506.310000  48965.510526  15730.007336
   11891.0320  453774.310000  49182.504462  15790.996880
   11891.6480  453409.310000  49320.522465  15833.014283
   11891.9560  452680.310000  49353.523372  15835.007584
   11892.5700  453193.310000  49593.499534  15929.994320
   11892.8790  452893.310000  49636.506392  15955.994335
   11893.4950  452457.310000  49773.485181  16032.989065
   11894.1090  452722.310000  49996.496617  16153.002332
   11894.4190  453106.310000  50129.506051  16222.007011
   11895.0350  452839.310000  50285.478544  16329.990717
   11895.6490  452381.060000  50401.245031  16425.760715
   11896.2660  452522.340000  50592.539873  16538.039175
   11896.8810  452284.120000  50729.295611  16616.838794
   11897.4980  452627.440000  50922.575861  16697.155221
   11898.4220  451986.250000  51065.328246  16736.981949
   11899.0380  452462.590000  51236.649457  16774.352545
   11899.6550  452681.440000  51390.465295  16797.241141
   11900.5800  453091.810000  51575.759039  16829.625837
   11901.1950  452604.720000  51591.563537  16821.539222
   11902.1210  452954.090000  51725.907789  16864.971418
   11903.0450  453134.030000  51806.724305  16892.925988
   11903.6620  453729.470000  51879.054751  16931.404287
   11904.5870  453767.410000  51889.930499  16962.393626
   11905.5130  454145.870000  51883.273033  16983.910352
   11906.4380  454671.870000  51888.126834  17006.931461
   11907.3630  455373.370000  51870.471370  17014.478803
   11908.2910  455815.370000  51797.393899  17007.558063
   11909.2150  455748.910000  51643.741759  16959.141702
   11910.1430  456487.970000  51549.646190  16929.257650
   11911.0680  457555.530000  51454.054014  16882.882763
   11912.3030  457774.590000  51170.945557  16770.022230
   11913.2290  458298.220000  50987.377780  16686.701880
   11914.1560  459497.310000  50854.320659  16636.899461
   11915.3920  460474.940000  50623.729818  16569.595758
   11916.3180  460851.090000  50424.691995  16526.827599
   11917.5560  461098.750000  50135.143453  16495.576075
   11918.7930  462236.940000  49983.083429  16523.830584
   11919.7190  463265.620000  49913.553689  16560.619918
   11920.9570  464363.840000  49819.495478  16602.916669
   11922.1930  464809.560000  49700.986068  16593.744273
   11923.4320  465841.810000  49685.995513  16618.094187
   11924.6690  466455.560000  49660.445605  16625.933796
   11925.9080  468282.840000  49809.487221  16692.332335
   11927.1460  468948.620000  49874.966833  16717.218066
   11928.3840  469732.940000  49974.022501  16739.652739
   11929.6230  470868.750000  50119.511971  16784.576391
   11930.8610  472458.090000  50344.533567  16833.030285
   11932.4110  474396.970000  50679.093099  16898.020090
   11933.6510  475278.310000  50911.129213  16930.513869
   11934.8910  475983.220000  51167.706545  16961.542941
   11936.4410  477301.620000  51565.746168  17042.063613
   11937.9920  478685.530000  51991.324506  17150.131963
   11939.2320  479690.970000  52323.420632  17259.713459
   11940.7840  480216.940000  52698.024029  17414.809417
   11942.3360  480913.410000  53081.115947  17575.418209
   11943.5770  482983.370000  53562.715646  17765.550598
   11945.1300  486026.870000  54223.799132  18019.200980
   11946.6840  488619.910000  54792.422403  18234.363296
   11948.2370  489705.440000  55191.561349  18410.056560
   11949.7910  491265.470000  55598.190390  18567.275580
   11951.3460  492695.030000  55955.312563  18722.001484
   11952.8990  494756.120000  56356.971704  18889.249568
   11954.7670  496700.720000  56696.113969  19057.022555
   11956.3220  498363.840000  56948.788275  19197.314754
   11957.8780  499996.470000  57167.984971  19308.125900
   11959.7450  501828.620000  57389.632410  19395.433795
   11961.3010  503565.280000  57563.826380  19456.288932
   11963.1710  505900.440000  57777.526838  19511.653277
   11964.7290  507935.160000  57946.768326  19566.556379
   11966.5980  510008.340000  58096.480099  19640.957976
   11968.4700  511642.090000  58182.657988  19737.874188
   11970.0270  513553.310000  58304.416250  19870.333508
   11971.9000  515984.090000  58448.611464  20046.286641
   11973.7710  518010.340000  58562.361995  20191.772177
   11975.6440  519732.160000  58619.628741  20292.768721
   11977.5190  522334.470000  58791.373198  20401.289912
   11979.3920  524870.250000  58929.634066  20482.340773
   11981.2670  526248.620000  58978.428751  20521.903162
   11983.1410  527958.500000  59048.709151  20547.980881
   11985.0170  529821.870000  59145.520462  20571.587079
   11987.2060  530632.750000  59129.807978  20525.708269
   11989.0830  534407.120000  59483.617915  20591.347133
   11991.2730  538303.060000  59865.879001  20658.476307
   11993.1510  540798.500000  60125.722865  20671.165353
   11995.3440  542702.440000  60359.067035  20673.365420
   11997.2250  544647.940000  60623.863596  20709.066598
   11999.4170  547786.870000  61079.255292  20844.336652
   12001.2990  549917.370000  61452.101292  20984.079488
   12003.4940  552837.440000  61972.454130  21199.360118
   12005.6880  555329.940000  62479.307605  21423.135230
   12007.8860  557942.000000  63044.700991  21677.460071
   12010.0830  559711.560000  63539.552093  21889.292266
   12012.2820  561595.620000  64057.944306  22137.633942
   12014.4810  565523.250000  64799.857791  22463.514354
   12016.6820  569126.370000  65514.238510  22770.902183
   12018.8810  571980.000000  66106.166021  23039.820056
   12021.0830  573957.120000  66579.564405  23276.230501
   12023.6020  577271.810000  67191.532163  23571.190625
   12025.8040  580217.000000  67687.949903  23823.659213
   12028.0080  582752.690000  68081.866077  24022.644202
   12030.5270  585809.870000  68515.382562  24235.179672
   12032.7330  588721.620000  68893.335097  24425.201322
   12035.2570  591693.870000  69262.760113  24613.729319
   12037.7800  594129.620000  69556.718345  24781.775175
   12039.9890  596955.870000  69897.241928  24965.383144
   12042.5140  600218.690000  70250.194166  25135.471914
   12045.0400  603322.000000  70577.687317  25305.102390
   12047.5660  606045.810000  70849.759899  25474.261189
   12050.0960  609146.120000  71169.273496  25624.941980
   12052.6250  611865.000000  71420.266238  25723.106407
   12055.1540  613190.370000  71552.785952  25745.798336
   12057.6880  616223.250000  71847.823278  25811.014430
   12060.2210  621575.690000  72444.350625  26030.754114
   12062.7540  624820.620000  72802.449422  26193.036698
   12065.2880  628779.060000  73245.948738  26406.783794
   12068.1420  631562.000000  73573.073963  26575.111394
   12070.6780  634901.440000  73964.612861  26732.920254
   12073.2180  638545.440000  74417.701709  26878.261568
   12076.0730  640946.940000  74749.287211  26963.111108
   12078.6150  645300.940000  75327.387585  27138.483655
   12081.4730  647499.500000  75699.005379  27243.392683
   12084.3350  651149.560000  76259.145912  27432.799367
   12086.8780  653941.120000  76726.742929  27607.744103
   12089.7420  658951.190000  77465.870986  27907.192882
   12092.6060  662442.810000  78038.494923  28189.152184
   12095.4740  665714.870000  78631.663022  28509.645133
   12098.3400  668175.560000  79130.307322  28802.666031
   12101.2090  670173.690000  79592.504003  29070.209393
   12104.0800  675144.310000  80396.163760  29444.274019
   12106.9520  677582.500000  80920.348301  29726.839261
   12109.8250  681848.190000  81663.001213  30103.915241
   12112.6970  682746.440000  81963.214761  30313.529959
   12115.8940  690213.120000  83104.879576  30869.644409
   12118.7710  692325.370000  83537.115740  31137.305466
   12121.6500  697306.190000  84327.802195  31551.461502
   12124.8500  699495.440000  84754.028168  31821.150385
   12127.7310  703490.250000  85367.803130  32132.375910
   12130.9360  706626.560000  85877.968933  32400.074516
   12133.8190  710873.370000  86500.769744  32681.338034
   12137.0270  712744.690000  86793.981157  32812.087792
   12140.2350  719382.560000  87687.756984  33138.375403
   12143.4450  722452.940000  88095.044512  33281.190346
   12146.3370  725506.810000  88517.782047  33447.497108
   12149.5510  729033.250000  88963.070142  33618.339664
   12152.7650  733183.120000  89503.926277  33833.725245
   12155.9810  737327.560000  90032.187378  34044.593675
   12159.2000  740234.560000  90417.977063  34235.985858
   12162.4210  745560.000000  91094.334631  34526.923599
   12165.6420  747620.000000  91398.112522  34707.341233
   12169.1890  752517.500000  92067.522878  35022.333296
   12172.4150  755935.500000  92577.307764  35283.790120
   12175.6430  760706.060000  93251.675698  35609.798129
   12178.8720  764257.060000  93815.510412  35880.307183
   12182.4260  767686.690000  94369.855439  36156.335683
   12185.6580  772188.750000  95076.707671  36455.885565
   12189.2180  775204.310000  95635.168181  36759.997167
   12192.4520  780363.440000  96457.043087  37149.583503
   12196.0160  783574.060000  97061.381942  37483.677888
   12199.5790  787108.250000  97734.320959  37837.326412
   12202.8220  791085.870000  98428.709101  38182.474234
   12206.3900  795058.060000  99155.680314  38555.167720
   12209.9610  799019.750000  99877.023465  38945.325951
   12213.5340  803840.000000  100717.970982  39387.044577
   12217.1070  807707.690000  101413.399081  39801.270077
   12220.6860  812624.940000  102276.371606  40281.027429
   12224.2630  814499.690000  102728.855616  40599.313088
   12227.8450  819643.000000  103593.841140  41052.107713
   12231.4270  824069.810000  104355.281670  41470.409433
   12235.0130  828292.060000  105076.202146  41840.209280
   12238.9270  831896.940000  105746.694839  42236.562799
   12242.5160  835269.250000  106349.743305  42551.445573
   12246.1080  840362.120000  107179.274406  42964.843754
   12250.0290  844255.500000  107835.204110  43265.717333
   12253.6250  848725.370000  108587.756236  43566.158131
   12257.5500  852998.750000  109281.823489  43879.120069
   12261.1520  856277.690000  109867.349861  44148.582838
   12265.0810  860414.120000  110545.346045  44490.545603
   12269.0160  863306.060000  111077.957519  44768.075045
   12272.6230  868535.560000  111856.917137  45159.060217
   12276.5610  873127.560000  112577.476206  45515.597163
   12280.5020  874504.060000  112906.600998  45729.684438
   12284.4450  881096.060000  113920.137560  46222.244051
   12288.3910  885126.620000  114568.249191  46587.352943
   12292.3380  888537.620000  115163.860456  46952.980578
   12296.2890  893786.250000  115999.937536  47405.106389
   12300.2430  897695.310000  116708.539601  47836.766252
   12304.1980  902452.870000  117498.723211  48263.962648
   12308.1580  904715.000000  117998.271609  48608.634366
   12312.1190  910476.620000  118939.412005  49133.850688
   12316.0840  914152.810000  119653.102721  49528.603227
   12320.3800  917730.440000  120356.203592  49962.843999
   12324.3490  923053.620000  121285.870591  50479.621793
   12328.6520  925283.310000  121851.120005  50839.955534
   12332.6270  930362.560000  122773.765837  51370.755923
   12336.6040  933460.250000  123445.946537  51800.089673
   12340.9150  939652.500000  124539.648377  52386.945367
   12345.2290  942101.250000  125153.846544  52782.318244
   12349.2150  946858.560000  126051.521752  53276.195941
   12353.5360  950906.370000  126871.733473  53736.609127
   12357.8590  954554.690000  127650.484414  54182.552040
   12362.1870  958598.500000  128447.636334  54651.967835
   12366.1830  962910.810000  129284.420923  55126.960110
   12370.5150  968514.690000  130276.700064  55681.460756
   12374.8510  972765.060000  131130.445329  56177.470381
   12379.1890  976612.940000  131889.625400  56634.967884
   12383.5320  980339.370000  132616.407598  57043.019294
   12387.8760  983483.250000  133289.653587  57412.572169
   12392.5600  986076.690000  133887.531516  57764.692376
   12396.9110  993546.690000  135120.781517  58416.288076
   12401.2650  997567.120000  135905.587448  58879.414753
   12405.6210  1001849.100000  136665.819400  59323.028614
   12410.3170  1005439.600000  137434.733339  59781.236319
   12414.6820  1008817.600000  138088.975994  60190.885125
   12419.0490  1013552.200000  138937.816434  60698.092301
   12423.7550  1016414.200000  139607.124235  61150.798630
   12428.1290  1020450.800000  140386.982412  61627.042105
   12432.8420  1024159.900000  141152.370077  62131.825510
   12437.5600  1028625.500000  142023.242532  62690.111508
   12441.9420  1031749.600000  142726.509909  63167.863376
   12446.6660  1037415.300000  143763.503149  63816.234053
   12451.3950  1040045.400000  144412.768206  64295.017829
   12456.1250  1044385.100000  145310.752537  64854.420287
   12460.5220  1048201.200000  146119.069110  65392.261854
   12465.2610  1050462.900000  146732.060093  65850.702950
