# XDI/1.0
# Column.1: energy eV
# Column.2: i0
# Column.3: itrans
# Column.4: irefer
# Beamline.name: SSRL 2-3
# Beamline.notes: vert slits = 0.6mm
# Detector.I0: N2 15cm
# Detector.I1: Ar 30cm
# Detector.I2: Ar 15cm
# Element.edge: K
# Element.symbol: As
# Mono.d_spacing: 3.13550
# Mono.name: Si(111)
# Mono.notes: unfocused, detuned 75%, clockwise at E=12000eV
# Sample.formula: AsS
# Sample.name: AsS (realgar)
# Sample.prep: powder on tape (5 layers)
# Sample.reference: GaAs powder
# Sample.temperature: 10K
# Scan.start_time: 1997-04-19 17:37:58
# ///
#    Note: mono d_spacing is nominal!
#     exafs to K16, GaAs in IR
#     413  E XMU XMUR I0
#-------------
#   energy   i0   itrans  irefer
   11634.8900  540319.310000  71348.497077  29314.998511
   11644.9080  537406.310000  71285.464154  29460.984770
   11654.9440  535418.310000  71334.517682  29651.008229
   11664.9980  532638.310000  71269.509624  29811.004413
   11675.0700  530754.310000  71345.496331  30012.996999
   11684.8620  527046.310000  71154.489344  30106.994478
   11694.9690  523989.310000  71040.510400  30236.003505
   11705.0930  520206.310000  70843.518709  30333.007708
   11714.9370  518180.310000  70890.488478  30520.993872
   11725.0950  516167.310000  70890.466262  30701.986432
   11734.9740  514044.310000  70908.510952  30879.003914
   11744.8670  510964.310000  70774.498442  30999.998135
   11755.0790  508192.310000  70696.490965  31135.994798
   11765.0090  505541.310000  70608.515699  31275.006250
   11774.9540  502913.310000  70518.480437  31415.990325
   11784.9180  500761.310000  70482.507637  31576.003854
   11794.8960  498293.310000  70397.509038  31717.005227
   11804.8950  495766.310000  70279.466098  31827.986027
   11814.9090  492864.310000  70059.501534  31897.001321
   11824.9400  490578.310000  69889.464798  31982.984266
   11834.9890  488525.310000  69618.496184  32009.997690
   11845.0570  486645.310000  69009.525204  31813.010506
   11845.3610  485901.310000  68890.517216  31769.008447
   11845.9730  485383.310000  68761.494045  31713.996350
   11846.5830  485455.310000  68741.509728  31710.004614
   11846.8890  485690.310000  68751.475530  31707.989967
   11847.4990  486351.310000  68787.512413  31722.005595
   11848.1100  486116.310000  68699.499662  31690.001348
   11848.4150  485561.310000  68592.524874  31638.010509
   11849.0270  486165.310000  68616.478009  31646.989010
   11849.6370  485412.310000  68426.532639  31557.016380
   11849.9420  484703.310000  68301.516633  31497.008460
   11850.5560  484938.310000  68246.468352  31461.984853
   11850.8600  485234.310000  68242.523869  31467.009756
   11851.4710  485198.310000  68146.492806  31404.996170
   11852.0830  484120.310000  67864.525792  31283.010361
   11852.3900  483877.310000  67781.505862  31234.001180
   11853.0000  484624.310000  67768.533003  31221.016450
   11853.6100  484768.310000  67622.520121  31155.009953
   11853.9170  484846.310000  67555.531877  31110.013788
   11854.5290  484469.310000  67337.486375  30994.993321
   11855.1400  484903.310000  67184.496243  30911.998523
   11855.4460  485226.310000  67143.518840  30891.009926
   11856.0580  484831.310000  66843.496644  30724.998788
   11856.3630  484515.310000  66660.530452  30625.014135
   11856.9760  483933.310000  66293.516891  30436.008816
   11857.5880  485047.310000  66086.496205  30300.997494
   11857.8940  484137.310000  65813.472383  30165.988009
   11858.5040  483056.310000  65214.525686  29849.011709
   11859.1180  483144.310000  64714.506459  29571.004026
   11859.4240  483598.310000  64532.477494  29458.989925
   11860.0350  483088.310000  63792.490099  29056.995794
   11860.6470  482123.310000  62883.506481  28562.004232
   11860.9550  482272.310000  62523.526695  28362.011118
   11861.5660  482183.310000  61436.514246  27752.006752
   11861.8720  481953.310000  60779.480616  27395.992461
   11862.4840  481131.310000  59146.488735  26516.994428
   11863.0980  480630.310000  57159.487577  25425.995316
   11863.4030  480569.310000  56209.482116  24907.993190
   11864.0170  480404.310000  53258.481125  23315.991645
   11864.6280  478821.310000  49244.489833  21208.994908
   11864.9350  478716.310000  47071.520943  20080.009487
   11865.5470  479120.310000  41728.516123  17384.006815
   11865.8540  478923.310000  39339.514833  16216.006017
   11866.4670  478433.310000  32689.496820  13052.999161
   11867.0780  478419.310000  25600.491884  9821.997033
   11867.3880  479323.310000  22300.505322  8358.002293
   11867.9990  479239.310000  16411.496182  5830.997456
   11868.6110  478910.310000  11848.500691  3911.000938
   11868.9190  478671.310000  10549.496793  3364.997302
   11869.5320  479307.310000  8628.502414  2508.000839
   11870.1450  478927.310000  8713.502484  2382.000861
   11870.4510  477994.310000  9242.503853  2495.000248
   11871.0640  477311.310000  11246.499442  3013.999455
   11871.3710  478081.310000  12282.504146  3296.000694
   11871.9850  478099.310000  15239.495902  4126.000238
   11872.5990  477314.310000  17886.499398  4889.002059
   11872.9050  476919.310000  18989.502285  5216.002559
   11873.5180  476630.310000  20869.508264  5790.005022
   11874.1330  476734.310000  21928.503793  6145.999200
   11874.4390  476321.310000  22126.492528  6227.996223
   11875.0530  476163.310000  22178.489631  6318.999468
   11875.3580  476579.310000  22056.495788  6326.000172
   11875.9750  477178.310000  21609.504403  6295.998271
   11876.5880  476678.310000  21142.492139  6267.997094
   11876.8940  475942.310000  20972.491478  6260.998326
   11877.5090  476470.310000  20796.493955  6318.996492
   11878.1230  476888.310000  20827.501742  6421.998182
   11878.4300  476806.310000  20883.499504  6482.001588
   11879.0440  476047.310000  21039.491936  6589.999285
   11879.3510  476369.310000  21149.503177  6644.001482
   11879.9660  476518.310000  21411.499733  6780.000315
   11880.5800  475916.310000  21611.509488  6877.003501
   11880.8870  475252.310000  21671.495854  6913.001002
   11881.5000  475773.310000  21874.498391  7000.002466
   11882.1160  476227.310000  22053.499180  7081.001003
   11882.4240  475632.310000  22076.508906  7093.005075
   11883.0370  474983.310000  22187.491110  7138.000296
   11883.6520  475666.310000  22352.509105  7194.001681
   11883.9590  475523.310000  22401.499596  7204.003426
   11884.5740  474363.310000  22477.493167  7223.000909
   11884.8810  474331.310000  22521.491786  7240.998011
   11885.4960  474078.310000  22619.503459  7270.997712
   11886.1100  473895.310000  22713.499340  7305.002828
   11886.4190  473691.310000  22759.505102  7322.002564
   11887.0340  473613.310000  22858.503375  7366.002718
   11887.6480  474260.310000  22989.494441  7409.999325
   11887.9550  474627.310000  23048.504475  7430.000199
   11888.5720  474507.310000  23157.507445  7474.005176
   11888.8790  474093.310000  23194.499473  7483.998132
   11889.4930  474344.310000  23338.502170  7529.001653
   11890.1090  474541.310000  23482.504965  7573.002909
   11890.4170  474795.310000  23554.497641  7593.000111
   11891.0320  474410.310000  23688.497201  7636.997894
   11891.6480  473926.310000  23809.504399  7669.004729
   11891.9560  474126.310000  23892.503843  7690.999607
   11892.5700  474174.310000  24046.488960  7741.999571
   11892.8790  473766.310000  24080.495157  7755.995702
   11893.4950  473515.310000  24229.508402  7812.001818
   11894.1090  473541.310000  24375.490817  7873.999687
   11894.4190  473398.310000  24438.509031  7898.999668
   11895.0350  473660.310000  24597.490344  7977.997333
   11895.6490  473124.060000  24712.263970  8044.765548
   11896.2660  473209.340000  24844.511672  8115.037888
   11896.8810  473579.120000  24990.281137  8187.838919
   11897.4980  472714.440000  25069.563111  8232.152184
   11898.4220  473116.250000  25260.353972  8305.991567
   11899.0380  473418.590000  25368.645071  8344.352522
   11899.6550  473594.440000  25472.446629  8372.230560
   11900.5800  473165.810000  25566.755052  8385.624550
   11901.1950  473511.720000  25644.565150  8405.537074
   11902.1210  473764.090000  25731.875041  8422.969998
   11903.0450  474290.030000  25809.716052  8450.925924
   11903.6620  474566.470000  25841.059814  8458.397142
   11904.5870  474901.410000  25865.918771  8478.395522
   11905.5130  475412.870000  25883.265146  8493.903123
   11906.4380  475754.870000  25873.123898  8496.936974
   11907.3630  476165.370000  25844.484429  8501.479523
   11908.2910  476608.370000  25804.376941  8499.557696
   11909.2150  477914.910000  25782.751042  8498.143298
   11910.1430  478238.970000  25698.652145  8467.256471
   11911.0680  479326.530000  25621.044285  8444.877598
   11912.3030  479926.590000  25447.949111  8373.032751
   11913.2290  480707.220000  25327.389385  8325.702316
   11914.1560  481420.310000  25184.298222  8268.885319
   11915.3920  482243.940000  24983.736811  8199.597647
   11916.3180  482972.090000  24841.679495  8161.817421
   11917.5560  483589.750000  24626.126281  8108.565105
   11918.7930  484453.940000  24448.072042  8087.829167
   11919.7190  485823.620000  24353.550165  8085.615641
   11920.9570  487231.840000  24230.521737  8081.916761
   11922.1930  488264.560000  24115.996852  8068.740434
   11923.4320  489077.810000  24017.977140  8049.078376
   11924.6690  490498.560000  23971.469281  8045.945848
   11925.9080  491105.840000  23920.472079  8038.324490
   11927.1460  491959.620000  23906.984147  8037.223116
   11928.3840  493009.940000  23925.009541  8040.645259
   11929.6230  494205.750000  23965.515153  8050.578309
   11930.8610  496178.090000  24057.550917  8078.037139
   11932.4110  497346.970000  24159.094940  8089.022627
   11933.6510  498664.310000  24301.137110  8116.517184
   11934.8910  499565.220000  24447.700444  8140.537096
   11936.4410  500709.620000  24679.756489  8194.066807
   11937.9920  502813.530000  24979.347555  8274.135013
   11939.2320  503983.970000  25214.430311  8342.704647
   11940.7840  504912.940000  25512.997250  8452.793837
   11942.3360  504946.410000  25773.099806  8552.411627
   11943.5770  506130.370000  26029.702357  8653.546910
   11945.1300  508903.870000  26442.806047  8802.195141
   11946.6840  511460.910000  26818.425238  8948.367919
   11948.2370  514263.440000  27205.568139  9092.070530
   11949.7910  515750.470000  27483.204242  9205.278442
   11951.3460  516897.030000  27722.342774  9298.012674
   11952.8990  518458.120000  27945.976981  9391.257966
   11954.7670  521106.720000  28206.144877  9499.031610
   11956.3220  522941.840000  28374.795062  9584.308724
   11957.8780  524500.440000  28497.981686  9652.126625
   11959.7450  525800.620000  28577.654220  9686.450869
   11961.3010  528023.250000  28682.848097  9727.299528
   11963.1710  529287.440000  28708.540277  9729.666782
   11964.7290  531817.120000  28796.753954  9750.549777
   11966.5980  534224.370000  28840.450105  9774.959076
   11968.4700  536694.060000  28889.673458  9816.878611
   11970.0270  538336.310000  28897.395686  9856.325939
   11971.9000  539954.060000  28887.646930  9918.295301
   11973.7710  541479.370000  28862.378580  9970.771547
   11975.6440  543643.120000  28867.633002  10013.778575
   11977.5190  545741.440000  28871.394940  10053.303736
   11979.3920  548403.250000  28908.650454  10082.334913
   11981.2670  550098.620000  28893.410861  10079.892231
   11983.1410  552190.500000  28908.714673  10093.978879
   11985.0170  553715.870000  28890.496065  10080.578835
   11987.2060  554948.750000  28854.782982  10050.694807
   11989.0830  557311.120000  28900.608427  10044.343575
   11991.2730  561670.060000  29047.911739  10062.499526
   11993.1510  563704.500000  29113.738554  10053.171713
   11995.3440  566786.440000  29250.058795  10056.373210
   11997.2250  568634.940000  29351.881402  10067.079517
   11999.4170  570804.870000  29506.229704  10098.323475
   12001.2990  573606.370000  29721.075131  10178.069886
   12003.4940  576910.440000  30014.453165  10291.353100
   12005.6880  579231.940000  30294.312377  10419.145056
   12007.8860  582139.000000  30635.677184  10557.455057
   12010.0830  583349.560000  30921.557519  10677.285078
   12012.2820  584631.620000  31222.966802  10814.641814
   12014.4810  588412.250000  31675.857817  11003.515445
   12016.6820  592596.370000  32152.252472  11204.903663
   12018.8810  595358.000000  32531.176462  11365.812035
   12021.0830  598158.120000  32903.601956  11524.245654
   12023.6020  601245.810000  33279.508679  11710.195266
   12025.8040  603390.000000  33542.951564  11840.664531
   12028.0080  607107.690000  33825.913787  11965.651721
   12030.5270  609904.870000  34049.351748  12076.156776
   12032.7330  611809.620000  34210.313252  12165.184659
   12035.2570  615975.870000  34451.784323  12278.733604
   12037.7800  618354.620000  34574.766070  12353.804986
   12039.9890  621378.870000  34734.241687  12438.381726
   12042.5140  625157.690000  34900.212636  12525.479403
   12045.0400  627211.000000  34948.725693  12566.116276
   12047.5660  630991.810000  35092.726370  12643.255148
   12050.0960  634378.120000  35210.248136  12718.914045
   12052.6250  637147.000000  35292.250180  12753.100241
   12055.1540  637764.370000  35263.798135  12733.800173
   12057.6880  640379.250000  35350.819657  12751.023960
   12060.2210  646710.690000  35649.390088  12846.765125
   12062.7540  649999.620000  35798.420713  12911.027334
   12065.2880  654334.060000  36007.995685  13018.807154
   12068.1420  656414.000000  36101.040493  13077.101027
   12070.6780  660817.440000  36357.612855  13183.916162
   12073.2180  663417.440000  36518.698423  13233.247528
   12076.0730  668365.940000  36835.307860  13331.115817
   12078.6150  669812.940000  36969.397631  13363.491575
   12081.4730  675616.500000  37370.013598  13492.387093
   12084.3350  678104.560000  37609.116997  13572.795986
   12086.8780  681676.120000  37899.755000  13678.737880
   12089.7420  685557.190000  38243.894388  13817.196280
   12092.6060  689067.810000  38568.530972  13966.165913
   12095.4740  692572.870000  38897.674213  14134.667391
   12098.3400  694563.560000  39144.294485  14273.657093
   12101.2090  698799.690000  39533.488966  14467.201686
   12104.0800  702391.310000  39885.133895  14649.243126
   12106.9520  707013.500000  40297.311738  14841.819833
   12109.8250  709197.190000  40578.022893  14983.919788
   12112.6970  713929.440000  41002.175814  15196.515132
   12115.8940  717428.120000  41367.881122  15390.646603
   12118.7710  722414.370000  41782.094810  15600.297646
   12121.6500  725560.190000  42091.803577  15778.463370
   12124.8500  729654.440000  42463.040072  15974.154177
   12127.7310  731681.250000  42671.786677  16100.367025
   12130.9360  738116.560000  43142.032440  16313.096517
   12133.8190  740379.370000  43351.777983  16414.341214
   12137.0270  743015.690000  43578.031626  16520.107273
   12140.2350  747093.560000  43876.787643  16638.389152
   12143.4450  752760.940000  44249.041077  16767.186646
   12146.3370  755235.810000  44425.828870  16829.514014
   12149.5510  760730.250000  44755.118909  16956.359026
   12152.7650  764977.120000  45009.875664  17054.708516
   12155.9810  768627.560000  45223.213811  17151.602936
   12159.2000  773122.560000  45498.009926  17265.000972
   12162.4210  776451.000000  45697.314702  17356.915883
   12165.6420  780257.000000  45933.162585  17480.363280
   12169.1890  782625.500000  46112.464494  17580.311181
   12172.4150  788642.500000  46507.338296  17770.802703
   12175.6430  791642.060000  46735.654135  17888.789741
   12178.8720  796624.060000  47089.538963  18062.319516
   12182.4260  800869.690000  47437.888730  18217.350237
   12185.6580  804179.750000  47747.743719  18368.899938
   12189.2180  810158.310000  48236.146771  18589.986453
   12192.4520  812803.440000  48521.029849  18745.578459
   12196.0160  817048.060000  48941.412433  18955.691285
   12199.5790  821239.250000  49345.297861  19159.318057
   12202.8220  826115.870000  49799.704094  19369.468586
   12206.3900  830247.060000  50216.633636  19584.149090
   12209.9610  832326.750000  50515.038907  19755.331259
   12213.5340  837723.000000  51006.011428  20003.058701
   12217.1070  840494.690000  51330.423915  20199.279494
   12220.6860  845300.940000  51787.391172  20444.038129
   12224.2630  849208.690000  52175.861415  20672.312880
   12227.8450  854938.000000  52650.774651  20930.084039
   12231.4270  858405.810000  53001.274461  21110.401048
   12235.0130  861979.060000  53343.224995  21299.220547
   12238.9270  865327.940000  53688.753979  21492.584238
   12242.5160  869942.250000  54090.730450  21697.443231
   12246.1080  874421.120000  54495.225388  21894.829001
   12250.0290  875728.500000  54689.247144  22007.735636
   12253.6250  882875.370000  55252.746348  22244.154318
   12257.5500  885403.750000  55524.799326  22356.112099
   12261.1520  889304.690000  55878.288747  22520.556407
   12265.0810  894836.120000  56335.370897  22731.558365
   12269.0160  897443.060000  56615.889298  22888.048516
   12272.6230  901993.560000  56990.944133  23071.070661
   12276.5610  906708.560000  57398.551937  23275.629650
   12280.5020  911523.060000  57808.619610  23478.689801
   12284.4450  913991.060000  58071.196884  23627.268507
   12288.3910  919235.620000  58507.238222  23854.347286
   12292.3380  925044.620000  58986.875747  24119.987996
   12296.2890  928652.250000  59316.964331  24313.120466
   12300.2430  931468.310000  59610.585602  24497.781663
   12304.1980  937364.870000  60101.668835  24763.946092
   12308.1580  941354.000000  60468.300218  24986.644556
   12312.1190  943710.620000  60758.474628  25153.877825
   12316.0840  950295.810000  61328.110785  25452.610593
   12320.3800  954381.440000  61747.248995  25699.862041
   12324.3490  958830.620000  62184.914477  25957.641536
   12328.6520  962490.310000  62600.045102  26192.918778
   12332.6270  965502.560000  62969.768953  26426.755249
   12336.6040  971707.250000  63542.919548  26738.074904
   12340.9150  975579.500000  63991.589036  27007.919921
   12345.2290  980074.250000  64486.785968  27283.292925
   12349.2150  983578.560000  64899.473593  27522.176906
   12353.5360  988116.370000  65411.721760  27792.602112
   12357.8590  992757.690000  65929.409469  28079.518067
   12362.1870  997518.500000  66453.648856  28359.974286
   12366.1830  1002955.800000  67005.366902  28655.936208
   12370.5150  1005715.700000  67385.624333  28888.431081
   12374.8510  1009325.100000  67825.360159  29145.431266
   12379.1890  1014835.900000  68371.645795  29438.972847
   12383.5320  1019164.400000  68847.392678  29698.010435
   12387.8760  1023527.300000  69294.676005  29936.581015
   12392.5600  1025072.700000  69565.504250  30114.684679
   12396.9110  1032159.700000  70208.731394  30450.264550
   12401.2650  1036423.100000  70642.555860  30701.399416
   12405.6210  1041139.100000  71119.864161  30974.044550
   12410.3170  1045283.600000  71555.653327  31228.196327
   12414.6820  1046817.600000  71808.006692  31406.895907
   12419.0490  1051708.100000  72279.813344  31688.089455
   12423.7550  1056017.300000  72761.127284  31975.799361
   12428.1290  1060964.800000  73254.960212  32265.039054
   12432.8420  1065835.900000  73768.340785  32575.812102
   12437.5600  1067553.500000  74064.168618  32802.077800
   12441.9420  1071733.600000  74522.552916  33096.882819
   12446.6660  1074116.300000  74878.481735  33346.227782
   12451.3950  1078169.400000  75357.833560  33664.049313
   12456.1250  1083229.000000  75915.712161  34009.403990
   12460.5220  1085502.300000  76268.126220  34252.286039
   12465.2610  1088218.900000  76677.061974  34526.698766
   12470.0030  1092854.100000  77224.440479  34860.597971
   12474.7480  1096835.900000  77711.391804  35179.043820
   12479.4980  1101183.100000  78235.806490  35517.997017
   12484.2500  1106924.900000  78870.722609  35893.459397
