#XDI/1.1    Epics StepScan File / 2.0
# Scan.start_time: 2016-03-21 11:36:21
# Legend.Start: Column.N: Name  units || EpicsPV
# Column.1: energy eV  ||  13IDE:En:Energy.VAL
# Column.2: energy_readback eV  ||  13IDE:En:E_RBV.VAL
# Column.3: counttime counts  ||  13IDE:scaler1.T
# Column.4: i0 counts  ||  13IDE:scaler1_calc2.VAL
# Column.5: itrans counts  ||  13IDE:scaler1_calc3.VAL
# Legend.End: here
# Scan.end_time: 2016-03-21 11:46:36
# ExtraPVs.Start: Family.Member: Value | PV
# Element.symbol:  Zn
# Element.edge:  K
# Facility.Name:  APS
# Beamline.Name:  13-ID-E
# Beamline.xray_source:  undulator
# Sample.name:  Znfoil
# Sample.prep: metal foil
# Scaler.frequency: 5e+07  ||  13IDE:scaler1.FREQ
# Scaler.read_delay: 0  ||  13IDE:scaler1.DLY
# Scaler.Calc1: A  ||  13IDE:scaler1_calc1.CALC
# Scaler.Calc2: B-(A*3.1518e-05)  ||  13IDE:scaler1_calc2.CALC
# Scaler.Calc3: C-(A*1.8886e-05)  ||  13IDE:scaler1_calc3.CALC
# Scaler.Calc4: D-(A*4.174e-06)  ||  13IDE:scaler1_calc4.CALC
# Facility.Ring_Current: 96.0  ||  S:SRcurrentAI.VAL
# Facility.Ring_Lifetime: 67.2  ||  S:SRlifeTimeHrsCC.VAL
# Undulator.Energy: 10.399  ||  ID13us:Energy.VAL
# Undulator.HarmonicValue: 1  ||  ID13us:HarmonicValue.VAL
# Mono.d_spacing: 3.13477
# Mono.name:  Si (111)
# Mono.height: 26.75000  ||  13IDE:En:height.VAL
# Mono.theta_offset: 17.52294  ||  13IDA:m65.OFF
# Mono.xtal2_y: 13.6284  ||  13IDA:m66.VAL
# Mono.xtal2_y_off: 13.2500  ||  13IDA:m66.OFF
# Mono.xtal2_pitch: -0.1200  ||  13IDA:m67.VAL
# Mono.xtal2_rol: 1.0100  ||  13IDA:m68.VAL
# Beamline.FOE_Slit_HPos: -0.4252  ||  13IDA:m1.VAL
# Beamline.FOE_Slit_HWid: 0.8000  ||  13IDA:m2.VAL
# Beamline.FOE_Slit_VPos: 0.4189  ||  13IDA:m3.VAL
# Beamline.FOE_Slit_VWid: 0.4000  ||  13IDA:m4.VAL
# Beamline.I0_Sensitivity_Number: 2  ||  13IDE:A1sens_num.VAL
# Beamline.I0_Sensitivity_Unit: nA/V  ||  13IDE:A1sens_unit.VAL
# Beamline.I1_Sensitivity_Number: 200  ||  13IDE:A2sens_num.VAL
# Beamline.I1_Sensitivity_Unit: nA/V  ||  13IDE:A2sens_unit.VAL
# Beamline.I2_Sensitivity_Number: 5  ||  13IDE:A3sens_num.VAL
# Beamline.I2_Sensitivity_Unit: nA/V  ||  13IDE:A3sens_unit.VAL
# SampleStage.FineX: 0  ||  13XRM:m1.VAL
# SampleStage.FineY: 0  ||  13XRM:m2.VAL
# SampleStage.Theta: 0  ||  13XRM:m3.VAL
# SampleStage.CoarseX: 99.6032  ||  13XRM:m4.VAL
# SampleStage.CoarseY: 10.3270  ||  13XRM:m5.VAL
# DetectorStage.X: 199.9  ||  13IDE:m34.VAL
# DetectorStage.Y: 3.359  ||  13IDE:m4.VAL
# DetectorStage.Z: 50.0000  ||  13IDE:m19.VAL
# Beamline.SSA_Slit_HPos: 0.0400  ||  13IDA:m69.VAL
# Beamline.SSA_Slit_HWid: 0.1000  ||  13IDA:m70.VAL
# Beamline.SSA_Slit_VPos: 2.2000  ||  13IDA:m71.VAL
# Beamline.SSA_Slit_VWid: 0.3500  ||  13IDA:m72.VAL
# ExtraPVs.End: here
# ScanParameters.Start: Scan.Member: Value
# ScanParameters.ScanType: xafs
# ScanParameters.E0: 9659.000
# ScanParameters.Legend:  Start, Stop, Step, K-space, Time
# ScanParameters.Region1:    -75.000,   -10.000,     5.000  False  0.50
# ScanParameters.Region2:    -10.000,    19.997,     0.100  False  0.50
# ScanParameters.Region3:      2.291,    13.000,     0.051  True  0.50
# ScanParameters.End: here
# ------------------------
# energy    energy_readback    counttime    i0    itrans
    9584.000000     9584.002729    0.5000  94955.049842    56941.849906
    9589.000000     9589.008726    0.5000  94603.049842    56795.849906
    9594.000000     9593.995819    0.5000  93946.049842    56491.849906
    9599.000000     9599.030704    0.5000  93769.049842    56429.849906
    9604.000000     9604.016310    0.5000  93691.049842    56424.849906
    9609.000000     9609.007213    0.5000  93244.049842    56152.849906
    9614.000000     9614.003421    0.5000  92966.049842    56021.849906
    9619.000000     9619.023227    0.5000  92057.049842    55455.849906
    9624.000000     9624.030089    0.5000  91820.049842    55272.849906
    9629.000000     9629.023957    0.5000  91922.049842    55194.849906
    9634.000000     9634.023124    0.5000  91531.049842    54776.849906
    9639.000000     9639.015356    0.5000  91196.049842    54264.849906
    9644.000000     9644.012879    0.5000  90912.049842    53574.849906
    9649.000000     9649.021835    0.5000  90786.049842    52450.849906
    9649.099990     9649.083177    0.5000  91167.049842    52624.849906
    9649.199980     9649.193595    0.5000  91088.049842    52550.849906
    9649.299970     9649.310150    0.5000  91225.049842    52595.849906
    9649.399960     9649.408303    0.5000  91063.049842    52470.849906
    9649.499950     9649.506459    0.5000  91012.049842    52420.849906
    9649.599940     9649.586212    0.5000  91108.049842    52447.849906
    9649.699930     9649.702777    0.5000  91016.049842    52358.849906
    9649.799920     9649.800938    0.5000  91121.049842    52386.849906
    9649.899910     9649.892967    0.5000  91267.049842    52436.849906
    9649.999900     9650.003404    0.5000  91017.049842    52275.849906
    9650.099890     9650.095436    0.5000  91110.049842    52269.849906
    9650.199880     9650.205878    0.5000  91069.049842    52228.849906
    9650.299870     9650.310186    0.5000  91027.049842    52164.849906
    9650.399860     9650.408360    0.5000  91136.049842    52196.849906
    9650.499850     9650.488128    0.5000  90943.049842    52046.849906
    9650.599840     9650.586307    0.5000  91057.049842    52070.849906
    9650.699830     9650.702896    0.5000  91202.049842    52110.849906
    9650.799820     9650.794942    0.5000  91030.049842    51988.849906
    9650.899810     9650.905400    0.5000  91158.049842    52012.849906
    9650.999800     9651.009723    0.5000  91037.049842    51920.849906
    9651.099790     9651.095639    0.5000  91040.049842    51866.849906
    9651.199780     9651.199967    0.5000  91220.049842    51932.849906
    9651.299770     9651.298160    0.5000  90856.049842    51679.849906
    9651.399760     9651.396355    0.5000  91041.049842    51750.849906
    9651.499750     9651.488414    0.5000  91211.049842    51786.849906
    9651.599740     9651.592751    0.5000  90944.049842    51618.849906
    9651.699730     9651.715502    0.5000  91107.049842    51639.849906
    9651.799720     9651.807568    0.5000  91115.049842    51611.849906
    9651.899710     9651.905774    0.5000  90929.049842    51462.849906
    9651.999700     9651.997844    0.5000  91145.049842    51512.849906
    9652.099690     9652.096053    0.5000  90956.049842    51362.849906
    9652.199680     9652.206541    0.5000  90898.049842    51271.849906
    9652.299670     9652.304755    0.5000  91030.049842    51304.849906
    9652.399660     9652.409110    0.5000  90692.049842    51049.849906
    9652.499650     9652.507328    0.5000  90983.049842    51161.849906
    9652.599640     9652.599409    0.5000  91014.049842    51103.849906
    9652.699630     9652.697631    0.5000  90881.049842    50967.849906
    9652.799620     9652.820412    0.5000  91024.049842    50985.849906
    9652.899610     9652.906360    0.5000  90968.049842    50896.849906
    9652.999600     9652.986171    0.5000  90969.049842    50829.849906
    9653.099590     9653.108959    0.5000  91075.049842    50828.849906
    9653.199580     9653.201052    0.5000  90779.049842    50602.849906
    9653.299570     9653.299286    0.5000  90928.049842    50615.849906
    9653.399560     9653.403663    0.5000  91032.049842    50594.849906
    9653.499550     9653.501902    0.5000  90860.049842    50432.849906
    9653.599540     9653.600142    0.5000  90914.049842    50374.849906
    9653.699530     9653.698385    0.5000  91005.049842    50354.849906
    9653.799520     9653.802771    0.5000  90761.049842    50146.849906
    9653.899510     9653.901018    0.5000  90887.049842    50142.849906
    9653.999500     9654.005407    0.5000  90936.049842    50080.849906
    9654.099490     9654.097518    0.5000  90636.049842    49827.849906
    9654.199480     9654.201912    0.5000  90931.049842    49901.849906
    9654.299470     9654.300168    0.5000  90874.049842    49784.849906
    9654.399460     9654.404566    0.5000  90839.049842    49672.849906
    9654.499450     9654.502826    0.5000  90902.049842    49590.849906
    9654.599440     9654.588805    0.5000  90602.049842    49339.849906
    9654.699430     9654.705493    0.5000  90740.049842    49318.849906
    9654.799420     9654.791475    0.5000  90932.049842    49296.849906
    9654.899410     9654.908168    0.5000  90721.049842    49073.849906
    9654.999400     9655.012580    0.5000  90783.049842    49006.849906
    9655.099390     9655.092427    0.5000  90891.049842    48962.849906
    9655.199380     9655.196843    0.5000  90658.049842    48699.849906
    9655.299370     9655.301261    0.5000  90852.049842    48678.849906
    9655.399360     9655.381112    0.5000  90682.049842    48454.849906
    9655.499350     9655.491677    0.5000  90685.049842    48332.849906
    9655.599340     9655.602245    0.5000  90638.049842    48168.849906
    9655.699330     9655.694387    0.5000  90615.049842    47994.849906
    9655.799320     9655.804959    0.5000  90630.049842    47878.849906
    9655.899310     9655.903248    0.5000  90787.049842    47788.849906
    9655.999300     9655.995395    0.5000  90594.049842    47545.849906
    9656.099290     9656.099831    0.5000  90596.049842    47376.849906
    9656.199280     9656.204270    0.5000  90557.049842    47203.849906
    9656.299270     9656.296423    0.5000  90565.049842    47016.849906
    9656.399260     9656.407010    0.5000  90677.049842    46870.849906
    9656.499250     9656.486879    0.5000  90485.049842    46592.849906
    9656.599240     9656.591326    0.5000  90640.049842    46475.849906
    9656.699230     9656.695776    0.5000  90677.049842    46268.849906
    9656.799220     9656.800227    0.5000  90619.049842    46038.849906
    9656.899210     9656.898537    0.5000  90671.049842    45840.849906
    9656.999200     9656.984559    0.5000  90673.049842    45601.849906
    9657.099190     9657.101306    0.5000  90526.049842    45282.849906
    9657.199180     9657.199622    0.5000  90701.049842    45105.849906
    9657.299170     9657.291795    0.5000  90374.049842    44692.849906
    9657.399160     9657.408550    0.5000  90593.049842    44483.849906
    9657.499150     9657.513017    0.5000  90725.049842    44256.849906
    9657.599140     9657.611341    0.5000  90508.049842    43834.849906
    9657.699130     9657.715813    0.5000  90634.049842    43547.849906
    9657.799120     9657.814142    0.5000  90783.049842    43262.849906
    9657.899110     9657.906327    0.5000  90541.049842    42790.849906
    9657.999100     9657.992367    0.5000  90533.049842    42406.849906
    9658.099090     9658.102994    0.5000  90369.049842    41891.849906
    9658.199080     9658.207476    0.5000  90299.049842    41420.849906
    9658.299070     9658.305815    0.5000  90376.049842    40990.849906
    9658.399060     9658.391863    0.5000  90155.049842    40400.849906
    9658.499050     9658.514792    0.5000  90195.049842    39835.849906
    9658.599040     9658.594697    0.5000  90360.049842    39340.849906
    9658.699030     9658.693044    0.5000  90132.049842    38632.849906
    9658.799020     9658.797539    0.5000  90382.049842    38082.849906
    9658.899010     9658.889743    0.5000  90337.049842    37312.849906
    9658.999000     9659.000391    0.5000  90074.049842    36436.849906
    9659.098990     9659.080304    0.5000  90279.049842    35695.849906
    9659.198980     9659.197103    0.5000  89908.049842    34628.849906
    9659.298970     9659.295463    0.5000  90145.049842    33761.849906
    9659.398960     9659.399972    0.5000  90329.049842    32832.849906
    9659.498950     9659.486040    0.5000  90224.049842    31704.849906
    9659.598940     9659.590553    0.5000  90128.049842    30437.849906
    9659.698930     9659.695068    0.5000  90410.049842    29312.849906
    9659.798920     9659.799586    0.5000  90290.049842    27973.849906
    9659.898910     9659.897958    0.5000  90409.049842    26649.849906
    9659.998900     9660.002481    0.5000  90549.049842    25209.849906
    9660.098890     9660.094708    0.5000  90217.049842    23705.849906
    9660.198880     9660.193086    0.5000  90416.049842    22311.849906
    9660.298870     9660.297615    0.5000  90190.049842    20826.849906
    9660.398860     9660.414444    0.5000  90263.049842    19354.849906
    9660.498850     9660.506680    0.5000  90377.049842    18011.849906
    9660.598840     9660.592768    0.5000  90118.049842    16653.849906
    9660.698830     9660.709604    0.5000  90257.049842    15429.849906
    9660.798820     9660.789547    0.5000  90447.049842    14210.849906
    9660.898810     9660.894089    0.5000  90185.049842    13092.849906
    9660.998800     9660.998633    0.5000  90257.049842    12111.849906
    9661.098790     9661.109330    0.5000  90163.049842    11138.849906
    9661.198780     9661.189279    0.5000  90174.049842    10342.849906
    9661.298770     9661.293830    0.5000  90394.049842     9653.849906
    9661.398760     9661.404533    0.5000  90099.049842     8970.849906
    9661.498750     9661.509089    0.5000  90318.049842     8380.849906
    9661.598740     9661.595196    0.5000  90309.049842     7866.849906
    9661.698730     9661.699755    0.5000  90124.049842     7388.849906
    9661.798720     9661.804318    0.5000  90158.049842     6967.849906
    9661.898710     9661.890429    0.5000  90234.049842     6563.849906
    9661.998700     9662.007298    0.5000  90127.049842     6200.849906
    9662.098690     9662.111867    0.5000  90262.049842     5882.849906
    9662.198680     9662.197984    0.5000  89989.049842     5568.849906
    9662.298670     9662.314861    0.5000  90099.049842     5280.849906
    9662.398660     9662.413285    0.5000  90257.049842     5038.849906
    9662.498650     9662.499408    0.5000  89928.049842     4787.849906
    9662.598640     9662.597836    0.5000  90077.049842     4583.849906
    9662.698630     9662.696266    0.5000  90192.049842     4377.849906
    9662.798620     9662.807002    0.5000  90050.049842     4192.849906
    9662.898610     9662.899284    0.5000  90243.049842     4036.849906
    9662.998600     9663.003873    0.5000  90112.049842     3880.849906
    9663.098590     9663.102312    0.5000  90126.049842     3734.849906
    9663.198580     9663.200752    0.5000  90294.049842     3613.849906
    9663.298570     9663.299195    0.5000  90019.049842     3488.849906
    9663.398560     9663.397640    0.5000  90088.049842     3384.849906
    9663.498550     9663.502240    0.5000  90181.049842     3283.849906
    9663.598540     9663.612995    0.5000  89921.049842     3181.849906
    9663.698530     9663.705293    0.5000  90052.049842     3100.849906
    9663.798520     9663.809899    0.5000  90137.049842     3026.849906
    9663.898510     9663.902201    0.5000  90054.049842     2944.849906
    9663.998500     9664.006812    0.5000  90086.049842     2878.849906
    9664.098490     9664.105272    0.5000  90211.049842     2821.849906
    9664.198480     9664.191425    0.5000  90050.049842     2759.849906
    9664.298470     9664.302197    0.5000  90244.049842     2704.849906
    9664.398460     9664.412971    0.5000  90055.049842     2647.849906
    9664.498450     9664.511439    0.5000  90091.049842     2598.849906
    9664.598440     9664.597600    0.5000  90104.049842     2553.849906
    9664.698430     9664.720690    0.5000  89936.049842     2501.849906
    9664.798420     9664.800700    0.5000  90075.049842     2461.849906
    9664.898410     9664.917641    0.5000  90125.049842     2421.849906
    9664.998400     9665.003809    0.5000  89931.049842     2375.849906
    9665.098390     9665.096134    0.5000  90057.049842     2334.849906
    9665.198380     9665.194616    0.5000  90138.049842     2297.849906
    9665.298370     9665.299256    0.5000  90007.049842     2253.849906
    9665.398360     9665.391587    0.5000  90092.049842     2216.849906
    9665.498350     9665.508542    0.5000  89891.049842     2168.849906
    9665.598340     9665.613188    0.5000  90031.049842     2129.849906
    9665.698330     9665.699370    0.5000  90077.049842     2090.849906
    9665.798320     9665.804020    0.5000  89890.049842     2043.849906
    9665.898310     9665.902517    0.5000  89970.049842     2002.849906
    9665.998300     9666.007172    0.5000  90091.049842     1963.849906
    9666.098290     9666.111830    0.5000  89943.049842     1918.849906
    9666.198280     9666.191864    0.5000  89929.049842     1876.849906
    9666.298270     9666.302682    0.5000  89875.049842     1830.849906
    9666.398260     9666.401189    0.5000  90046.049842     1791.849906
    9666.498250     9666.493542    0.5000  89994.049842     1751.849906
    9666.598240     9666.598210    0.5000  89858.049842     1710.849906
    9666.698230     9666.702880    0.5000  89824.049842     1670.849906
    9666.798220     9666.801396    0.5000  89818.049842     1630.849906
    9666.898210     9666.893756    0.5000  89913.049842     1593.849906
    9666.998200     9666.998433    0.5000  89758.049842     1553.849906
    9667.098190     9667.084640    0.5000  89857.049842     1518.849906
    9667.198180     9667.177006    0.5000  89829.049842     1479.849906
    9667.298170     9667.312479    0.5000  89827.049842     1447.849906
    9667.398160     9667.386375    0.5000  89718.049842     1413.849906
    9667.498150     9667.484905    0.5000  89753.049842     1380.849906
    9667.598140     9667.595753    0.5000  89867.049842     1350.849906
    9667.698130     9667.700446    0.5000  89850.049842     1320.849906
    9667.798120     9667.805141    0.5000  89771.049842     1290.849906
    9667.898110     9667.891362    0.5000  89738.049842     1262.849906
    9667.998100     9668.002220    0.5000  89753.049842     1233.849906
    9668.098090     9668.113081    0.5000  89865.049842     1209.849906
    9668.198080     9668.193148    0.5000  89754.049842     1182.849906
    9668.298070     9668.279376    0.5000  89791.049842     1157.849906
    9668.398060     9668.390244    0.5000  89688.049842     1134.849906
    9668.498050     9668.488794    0.5000  89658.049842     1108.849906
    9668.598040     9668.581188    0.5000  89566.049842     1086.849906
    9668.698030     9668.710541    0.5000  89795.049842     1068.849906
    9668.798020     9668.809099    0.5000  89757.049842     1047.849906
    9668.898010     9668.907658    0.5000  89825.049842     1027.849906
    9668.998000     9668.981579    0.5000  89541.049842     1006.849906
    9669.097990     9669.104783    0.5000  89724.049842      991.849906
    9669.197980     9669.203349    0.5000  89721.049842      973.849906
    9669.297970     9669.308077    0.5000  89478.049842      953.849906
    9669.397960     9669.394326    0.5000  89628.049842      939.849906
    9669.497950     9669.486736    0.5000  89421.049842      921.849906
    9669.597940     9669.603793    0.5000  89535.049842      907.849906
    9669.697930     9669.696208    0.5000  89162.049842      890.849906
    9669.797920     9669.782463    0.5000  89431.049842      881.849906
    9669.897910     9669.887204    0.5000  89423.049842      870.849906
    9669.997900     9670.010432    0.5000  89286.049842      856.849906
    9670.097890     9670.084370    0.5000  89539.049842      850.849906
    9670.197880     9670.195280    0.5000  89482.049842      841.849906
    9670.297870     9670.306192    0.5000  89212.049842      831.849906
    9670.397860     9670.380135    0.5000  89370.049842      825.849906
    9670.497850     9670.478727    0.5000  88963.049842      816.849906
    9670.597840     9670.608132    0.5000  89362.049842      814.849906
    9670.697830     9670.675918    0.5000  89328.049842      808.849906
    9670.797820     9670.823816    0.5000  89100.049842      805.849906
    9670.897810     9670.873116    0.5000  89269.049842      806.849906
