# XDI/1.0
# Column.1: energy eV
# Column.2: i0
# Column.3: itrans
# Column.4: irefer
# Beamline.name: SSRL 4-1
# Detector.I0: N2 15cm
# Detector.I1: N2 30cm
# Detector.I2: Ar 15cm
# Element.edge: K
# Element.symbol: As
# Mono.d_spacing: 3.13550
# Mono.name: Si(111)
# Mono.notes: unfocused, detuned 40%,counter clockwise at E=12000eV
# Sample.formula: As2O3
# Sample.name: As2O3 arsenious oxide
# Sample.prep: powder, mixed 1:60 with B(OH)3 by wt
# Sample.reference: GaAs powder
# Sample.temperature: room temperature
# Scan.start_time: 1997-01-19 14:12:16
# ///
#    Note: mono d_spacing is nominal!
#     exafs to K15, GaAs in IR
#     320  E XMU XMUR I0
#-------------
#   energy   i0   itrans  irefer
   11649.9940  179062.340000  281173.246057  325986.938093
   11660.0050  177192.340000  278918.244732  324266.921768
   11669.9970  178040.340000  280974.257222  327516.931780
   11680.0060  177121.340000  280201.233029  327523.934361
   11689.9960  176917.340000  280586.236957  328854.932161
   11700.0050  176478.340000  280615.231838  329726.904360
   11709.9940  175015.340000  278964.247159  328693.934408
   11720.0020  175232.340000  280013.257569  330809.953048
   11730.0030  174715.340000  279882.233753  331530.934149
   11739.9950  174755.340000  280635.237412  333267.922510
   11749.9960  174308.340000  280622.233450  334135.934573
   11760.0000  174268.340000  281225.234682  335747.904851
   11769.9970  173368.340000  280415.256669  335698.945927
   11779.9990  172148.340000  279131.234836  334995.918103
   11789.9960  172098.340000  279693.247399  336515.919697
   11799.9980  171784.340000  279770.256228  337487.932087
   11810.0030  171212.340000  279410.252415  337853.929405
   11820.0020  170442.340000  278631.231797  337675.899318
   11829.9940  169899.340000  278125.247841  337681.939153
   11840.0030  169217.340000  277029.230029  336768.928879
   11850.0040  168960.340000  275741.246371  334877.941877
   11850.7620  168767.340000  275281.243866  334185.918401
   11851.5200  167889.340000  273618.245938  332085.933708
   11852.2780  168602.340000  274629.255010  333151.927434
   11853.0360  169457.340000  275801.254443  334395.931218
   11853.7820  168118.340000  273307.254368  331186.955507
   11854.5410  168709.340000  273969.244181  331751.917308
   11855.2990  168321.340000  273010.236425  330303.916769
   11856.0580  167594.340000  271362.242526  327967.925861
   11856.8150  168081.340000  271692.232878  327961.928139
   11857.5750  167596.340000  270384.237743  325971.922416
   11858.3340  167718.340000  269853.231673  324736.902855
   11859.0930  168226.340000  269832.240542  323923.939811
   11859.8530  167494.340000  267732.235463  320545.925584
   11860.6110  167509.340000  266501.243838  317822.932259
   11861.3570  167440.340000  264836.249537  314167.947860
   11862.1180  167890.340000  263841.231970  311021.931250
   11862.8770  167833.340000  261343.246295  305039.923027
   11863.6370  167567.340000  257390.246053  295330.922947
   11864.3960  167877.340000  253537.234446  284049.918957
   11865.1550  167960.340000  247354.240217  267022.928730
   11865.9030  167363.340000  236802.234135  242435.936879
   11866.6630  167393.340000  223930.239449  216630.943033
   11867.4230  167780.340000  207510.247476  188946.951143
   11868.1830  167879.340000  184729.245843  156328.946259
   11868.9430  167247.340000  160891.245757  126589.952769
   11869.7030  168294.340000  144548.251208  108525.956004
   11870.4510  168078.340000  129637.251916  95150.950220
   11871.2130  167908.340000  121216.249360  89094.948244
   11871.9730  167064.340000  119934.241812  88784.945918
   11872.7210  167263.340000  126090.241964  94140.943353
   11873.4820  167743.340000  137506.250345  103863.950360
   11874.2430  167382.340000  147281.240066  112716.944099
   11875.0040  167159.340000  155779.246613  121052.945893
   11875.7540  166906.340000  163168.246693  128924.950600
   11876.5150  166781.340000  168772.246667  135280.953534
   11877.2750  167107.340000  173314.246488  140852.944656
   11878.0250  167456.340000  176204.245955  145159.946033
   11878.7860  166608.340000  175383.246341  146184.943811
   11879.5480  166097.340000  173432.246328  145727.947771
   11880.3090  166590.340000  171610.246165  145178.946433
   11881.0600  166485.340000  169165.246560  143848.955293
   11881.8200  166363.340000  167580.245912  142984.955240
   11882.5820  167033.340000  167690.245909  143417.951225
   11883.3330  166587.340000  167970.245979  143779.942904
   11884.0950  166046.340000  168809.246082  144468.942842
   11884.8450  166934.340000  171371.245826  146619.945114
   11885.6070  167160.340000  173320.245193  148301.951999
   11886.3570  165962.340000  173480.245679  148496.952352
   11887.1200  165579.340000  174428.245362  149389.943181
   11887.8820  166466.340000  176854.246426  151542.956622
   11888.6340  167113.340000  179044.245140  153430.954014
   11889.3960  166536.340000  179885.245730  154091.953345
   11890.1460  166337.340000  181415.245005  155298.950923
   11890.9100  166634.340000  183452.245467  156950.942904
   11891.6730  165859.340000  184032.243700  157390.940910
   11892.4230  166471.340000  186207.242879  159258.945008
   11893.1880  166840.340000  188131.240530  161058.943585
   11893.9380  166748.340000  189124.254398  162220.955654
   11894.7010  165479.340000  188617.254481  162191.956946
   11895.4520  166283.340000  190121.245107  164013.952559
   11896.2160  166277.340000  190388.251690  164753.961257
   11896.9680  165623.340000  189812.240193  164637.942336
   11897.7310  166182.340000  190590.246873  165605.957949
   11898.4840  166049.340000  190629.236830  165698.947589
   11899.2480  166574.340000  191446.251128  166331.950972
   11900.0000  165944.340000  191005.253122  165754.956307
   11901.2820  165590.340000  191139.228384  165525.954437
   11902.5780  166518.330000  192880.204372  166826.957646
   11903.8960  166048.300000  193005.137919  166950.942185
   11905.2290  166510.250000  194177.068903  168145.936015
   11906.5740  165301.190000  193137.950659  167482.924676
   11907.9560  166698.120000  194938.809513  169209.909450
   11909.3520  165960.050000  193795.658403  168274.890764
   11910.7590  165791.940000  192759.467397  167293.880402
   11912.1910  166313.840000  192250.268658  166660.866113
   11913.6380  166307.720000  191017.033987  165295.834893
   11915.1070  165518.580000  189023.785127  163390.812595
   11916.5920  166188.440000  189136.509200  163550.796697
   11918.1010  166874.280000  189352.207870  164281.761986
   11919.6330  166581.110000  188571.875755  164363.713581
   11921.1800  166747.920000  188216.521637  164776.697853
   11922.7390  166151.730000  186656.141197  164000.652590
   11924.3230  167557.520000  187275.743571  164843.624679
   11925.9330  167263.300000  185941.315808  163840.585839
   11927.5550  167835.060000  185743.856945  163725.527247
   11929.1890  167540.810000  184854.388021  162879.477159
   11930.8510  168632.560000  185659.887260  163337.438653
   11932.5360  168167.280000  184777.374304  162138.388131
   11934.2330  169026.000000  185481.828790  162177.322386
   11935.9580  169827.700000  186251.247211  162207.284888
   11937.6950  169606.390000  185986.654202  161391.214220
   11939.4430  170929.060000  187333.043979  162234.158852
   11941.2190  170975.730000  187162.386419  162069.104717
   11943.0200  171611.390000  187608.733653  162708.033660
   11944.8330  171413.020000  187333.034483  162754.977761
   11946.6590  171935.640000  188093.327165  163678.912929
   11948.5110  172620.270000  189347.583260  165035.828197
   11950.3870  172055.860000  189456.813515  165391.766418
   11952.2780  172434.450000  190663.036702  166658.692607
   11954.1930  173243.030000  192150.209322  168233.602793
   11956.1100  173733.590000  193209.372777  169507.527174
   11958.0630  174509.140000  194548.505680  171110.426740
   11960.0310  174692.670000  195282.623123  172010.351582
   11962.0120  175792.200000  197014.713874  173532.259473
   11964.0190  175878.720000  197567.790127  173871.195023
   11966.0500  176348.220000  198503.823730  174559.081988
   11968.0950  176540.700000  199131.845330  175190.007961
   11970.1520  177847.170000  201012.819771  177354.878037
   11972.2360  178878.640000  202562.805095  179617.804847
   11974.3340  179294.080000  203385.737922  181419.705663
   11976.4560  180489.520000  205090.657922  183850.589681
   11978.5930  180659.940000  205743.568366  184989.483887
   11980.7540  182150.360000  207960.425555  187219.382906
   11982.9290  183024.750000  209553.272196  188725.275647
   11985.1300  183647.140000  210778.095303  189789.165172
   11987.3450  183604.520000  211142.887583  189844.040691
   11989.5850  184140.870000  212042.656113  190136.904467
   11991.8370  184918.220000  213166.419594  190437.788807
   11994.1040  185566.550000  214079.143869  190445.693001
   11996.3960  186053.870000  214736.835063  190172.557133
   11998.7150  188101.190000  217037.524534  191444.445118
   12001.0470  187631.480000  216320.158666  190401.276441
   12003.3930  189701.770000  218432.798181  192243.175060
   12005.7650  190032.030000  218477.413154  192554.039094
   12008.1490  191327.300000  219610.994421  193956.920292
   12010.5610  192090.550000  220099.534908  194771.772453
   12012.9850  192859.780000  220675.058579  195724.624906
   12015.4370  194472.000000  222320.579899  197695.485305
   12017.9000  194501.200000  222170.039572  198074.323744
   12020.3790  196205.410000  223944.515084  200141.180628
   12022.8830  196082.580000  223690.946716  200441.031655
   12025.4010  197523.750000  225277.354621  202451.880323
   12027.9450  199533.910000  227571.732600  205049.742659
   12030.5020  199113.050000  227076.088711  205070.567964
   12033.0870  200472.190000  228634.448620  206907.415250
   12035.6860  202512.310000  231124.742322  209537.243079
   12038.3100  203778.410000  232829.046435  211463.109051
   12040.9480  204407.500000  233863.298549  212809.923723
   12043.6010  205594.590000  235658.522822  214744.742800
   12046.2780  206720.660000  237346.764542  216614.590396
   12048.9710  208520.720000  239901.929513  219295.398559
   12051.6880  209379.750000  241346.120760  220905.243889
   12054.4210  209225.780000  241651.246353  221145.044447
   12057.1690  210831.800000  243930.380602  222871.880440
   12059.9400  212831.810000  246590.466295  224902.685415
   12062.7290  213583.800000  247738.526543  225824.496067
   12065.5430  214720.780000  249281.576385  227417.311506
   12068.3690  216363.750000  251384.595414  229646.125448
   12071.2110  217071.700000  252344.600001  230695.943991
   12074.0800  218492.640000  254251.549615  232218.737089
   12076.9770  219858.580000  256122.519420  233499.550365
   12079.8720  220552.500000  257308.450513  234093.355701
   12082.7960  221833.390000  259183.344378  235397.142211
   12085.7460  223846.280000  261894.215941  237549.935540
   12088.7120  224986.170000  263574.071212  238940.740538
   12091.6910  226458.030000  265595.886456  240898.542588
   12094.6960  226221.890000  265550.686421  241421.312482
   12097.7040  228665.720000  268673.476182  244969.114445
   12100.7500  230165.550000  270730.221550  247565.893420
   12103.8120  231451.370000  272556.923718  249998.659704
   12106.8890  232370.170000  273997.658425  251929.455658
   12109.9780  234258.970000  276649.348065  254952.237274
   12113.0960  235118.730000  278081.996211  256984.995674
   12116.2390  236446.500000  280065.629478  259623.786126
   12119.3870  238217.250000  282470.232241  262702.575981
   12122.5600  239990.000000  284858.810513  265694.309575
   12125.7460  241094.720000  286407.374962  267877.095200
   12128.9620  242479.440000  288204.910887  270209.848362
   12132.1920  243087.140000  289079.396826  271396.616336
   12135.4490  245147.830000  291608.898660  273934.368407
   12138.7210  247156.500000  293993.376809  276129.127405
   12142.0080  247777.160000  294677.811133  276452.872623
   12145.3090  249609.810000  296776.205701  278139.611872
   12148.6380  251610.450000  299048.616794  280042.368598
   12151.9800  253771.080000  301589.976389  282257.131917
   12155.3510  255518.690000  303670.325587  284113.886805
   12158.7370  256744.300000  305256.634677  285577.634829
   12162.1370  256837.870000  305705.930911  286101.336014
   12165.5530  258489.450000  308041.181664  288508.088150
   12168.9950  262168.000000  312929.435564  293366.842959
   12172.4530  262820.560000  314280.663019  294980.569465
   12175.9390  264359.090000  316730.852762  297713.322462
   12179.4410  266504.620000  319962.012974  301048.014696
   12182.9560  266539.120000  320674.158355  301879.751602
   12186.4990  269742.620000  325131.281908  306235.469774
   12190.0450  272348.120000  328860.352748  310041.165601
   12193.6320  274131.590000  331539.463098  313103.900701
   12197.2210  275376.060000  333473.484154  315485.611140
   12200.8380  277366.500000  336249.531077  318587.345100
   12204.4710  277884.940000  337201.523135  319959.054566
   12208.1160  281031.340000  341315.508154  324372.787590
   12211.7930  282983.780000  343913.468789  327534.470022
   12215.4830  283176.160000  344342.388398  328736.200677
   12219.1890  284970.560000  346732.287593  331907.911914
   12222.9230  287182.910000  349692.196798  335601.602574
   12226.6720  288764.280000  351862.021775  338494.273578
   12230.4380  290801.620000  354670.828793  341835.985163
   12234.2180  292357.970000  356957.660281  344610.693793
   12238.0250  295236.280000  360970.444902  349008.380533
   12241.8500  296852.590000  363478.222877  351911.067885
   12245.6890  297189.870000  364490.915323  353222.728707
   12249.5580  299138.160000  367553.666854  356201.449520
   12253.4430  301817.440000  371507.343558  359860.123919
   12257.3410  303000.690000  373586.018797  361745.831659
   12261.2570  303797.940000  375230.614654  363344.459790
   12265.2010  306697.190000  379454.239687  367541.147742
   12269.1580  308524.410000  382222.830713  370533.798654
   12273.1360  311363.590000  386186.390165  374629.485545
   12277.1260  312847.780000  388436.942461  377040.159771
   12281.1460  315690.970000  392342.425159  381092.833166
   12285.1820  316998.160000  394244.931397  383380.492657
   12289.2320  317593.310000  395220.392469  384902.141832
   12293.3130  319890.440000  398278.839673  388578.808365
   12297.3970  323040.560000  402421.234930  393276.453306
   12301.5080  324595.690000  404545.646603  396023.117514
   12305.6500  326093.810000  406672.015039  398762.766827
   12309.7950  328920.910000  410486.370738  403126.434797
   12313.9700  330148.970000  412396.669759  405673.044820
   12318.1580  333643.030000  417140.981160  411045.699362
   12322.3640  333044.090000  416900.249611  411534.375472
   12326.5860  336345.120000  421634.479201  416879.981269
   12330.8240  338324.160000  424713.740040  420711.676919
   12335.0920  340426.190000  428080.958315  424832.301196
   12339.3770  342828.190000  431782.080586  429302.892483
   12343.6890  344049.190000  434104.262462  432314.543536
   12348.0070  346067.160000  437407.371138  436132.151968
   12352.3530  348531.120000  441225.473780  440543.817756
   12356.7020  350692.090000  444321.545545  444808.420617
   12361.0800  352828.030000  447874.639669  448365.045844
   12365.4890  354248.940000  450599.665804  451093.665660
   12369.9020  356049.870000  453668.658870  454167.284080
   12374.3440  358282.780000  456832.618754  458737.899941
   12378.8030  360830.660000  460562.589293  462954.495040
   12383.2780  363920.530000  464982.522856  467765.116741
   12387.7700  365505.410000  467419.424901  470627.705710
   12392.2790  365219.250000  467536.330578  471134.361624
   12396.8160  368830.090000  472652.136581  476739.918184
   12401.3710  369749.910000  474339.997176  478896.528387
   12405.9430  373902.720000  480197.826064  485351.138861
   12410.5320  373036.530000  479694.599566  485390.722742
   12415.1390  378216.310000  487026.375437  493403.313947
   12419.7620  380071.090000  490154.091526  497253.901656
   12424.4150  382666.870000  494243.800918  502195.486672
   12429.0850  384158.620000  496975.505520  505754.098698
   12433.7720  385271.340000  499253.141776  508870.673790
   12438.4760  389422.090000  505404.813794  516042.248790
   12443.1970  390725.780000  507929.411415  519520.818588
   12447.9370  391245.500000  509366.012766  522032.418411
   12452.7050  393296.190000  512775.584390  526430.991195
   12457.4910  396918.840000  518173.136385  532866.576087
   12462.2810  399110.530000  521673.647534  537353.113836
   12467.1030  401675.160000  525674.133271  542316.696814
   12471.9400  404458.810000  529883.622314  547582.246264
   12476.8110  405355.440000  531573.040592  550223.787506
   12481.6830  408885.030000  536726.479874  556319.353569
   12486.5740  409500.620000  538056.846561  558403.906516
   12491.4960  411805.220000  541667.243257  562790.491760
   12496.4350  415295.780000  546843.627854  568868.067117
   12501.3790  417529.340000  550347.951492  573229.641693
   12506.3530  420043.910000  554312.248506  578044.186760
   12511.3450  419575.440000  554406.483745  578855.670571
   12516.3540  421058.970000  557136.735330  582474.236416
   12521.3960  423965.470000  561826.011137  588186.822772
   12526.4390  427537.970000  567432.161581  594813.346605
   12531.5040  430074.470000  571681.363724  600066.864439
   12536.5990  431217.940000  574140.490622  603374.426536
   12541.7110  433529.370000  578134.618070  608340.929908
   12546.8270  435267.840000  581373.766441  612587.516165
   12551.9750  438123.280000  586147.832681  618440.020858
   12557.1420  441637.690000  591740.882184  625249.568762
   12562.3270  444267.090000  596125.929364  630817.051093
   12567.5300  444134.500000  596786.927596  632424.549708
   12572.7510  447171.870000  601700.923689  638562.111120
   12577.9900  449688.250000  605888.856968  643996.605357
   12583.2600  451993.590000  609743.817910  649167.127081
   12588.5360  453785.940000  612920.776781  653637.652045
   12593.8300  455716.280000  616326.603115  658357.161628
   12599.1560  460000.590000  622898.492479  666512.678598
   12604.4860  461809.910000  626133.342870  671125.219762
   12609.8500  462971.220000  628663.157334  674957.720306
   12615.2170  463691.500000  630494.959177  678114.213615
   12620.6160  468082.750000  637311.659004  686511.657774
   12626.0210  471490.030000  642920.422314  693637.171785
   12631.4580  471629.250000  644071.142447  695917.709342
   12636.9140  474368.500000  648786.792523  702063.163038
   12642.3890  475319.720000  651072.479953  705546.600556
   12647.8670  480106.910000  658672.211760  714776.151084
   12653.3800  482764.090000  663318.726086  720856.600547
   12658.9100  483862.280000  665864.383063  724580.133414
   12664.4600  484768.470000  668101.959260  727997.588369
   12670.0270  486345.620000  671217.497245  732430.058763
   12675.6160  489930.750000  677110.009030  739868.571680
   12681.2220  490594.870000  678971.514936  742935.012980
   12686.8480  494418.000000  685136.996563  750807.499430
   12692.4790  497494.090000  690316.423414  757597.920587
   12698.1440  497573.190000  691316.852997  759847.413457
   12703.8250  501390.280000  697488.272418  767792.903449
   12709.5280  502543.340000  700011.585045  771750.271338
   12715.2500  505292.410000  704774.991873  778154.804122

