# XDI/1.0
# Column.1: energy eV
# Column.2: i0
# Column.3: itrans
# Column.4: irefer
# Beamline.name: SSRL 4-1
# Detector.I0: N2 15cm
# Detector.I1: N2 30cm
# Detector.I2: Ar 15cm
# Element.edge: K
# Element.symbol: As
# Mono.d_spacing: 3.13550
# Mono.name: Si(111)
# Mono.notes: unfocused, detuned 40%,counter clockwise at E=12000eV
# Sample.formula: As2O5
# Sample.name: As2O5 arsenic(V) oxide
# Sample.prep: powder, mixed 1:60 with B(OH)3 by wt
# Sample.reference: GaAs powder
# Sample.temperature: room temperature
# Scan.start_time: 1997-01-19 14:49:01
# ///
#    Note: mono d_spacing is nominal!
#     exafs to K15, GaAs in IR
#     320  E XMU XMUR I0
#-------------
#   energy   i0   itrans  irefer
   11649.9940  172917.340000  294631.250709  342306.925247
   11660.0050  172424.340000  294449.240958  343032.924227
   11669.9970  171674.340000  293854.254088  343249.953791
   11680.0060  171398.340000  294066.232085  344440.933896
   11689.9960  171030.340000  294143.242380  345423.937724
   11700.0050  169835.340000  292723.237126  344711.928863
   11709.9940  169837.340000  293414.256583  346420.950485
   11720.0020  170509.340000  295254.257596  349534.956504
   11730.0030  169481.340000  294127.231010  349125.910519
   11739.9950  168890.340000  293799.255169  349640.935239
   11749.9960  167856.340000  292654.254809  349213.958001
   11760.0000  167426.340000  292551.229038  350016.919011
   11769.9970  167669.340000  293619.239915  352192.931268
   11779.9990  166616.340000  292422.245550  351675.932120
   11789.9960  165943.340000  291874.234228  351897.909883
   11799.9980  166004.340000  292585.236949  353651.912937
   11810.0030  165653.340000  292541.252682  354447.943925
   11820.0020  164761.340000  291468.256442  353954.934932
   11829.9940  164561.340000  291532.236566  354678.905362
   11840.0030  164047.340000  290799.243644  354177.940884
   11850.0040  163691.340000  289754.230123  352553.922198
   11850.7620  163691.340000  289664.246434  352325.928818
   11851.5200  162794.340000  287982.232746  350146.901984
   11852.2780  163464.340000  289053.231321  351305.903050
   11853.0360  163062.340000  288232.250840  350109.926777
   11853.7820  162845.340000  287709.248399  349251.927127
   11854.5410  162784.340000  287439.256822  348655.963231
   11855.2990  163109.340000  287855.256865  348843.945092
   11856.0580  162973.340000  287388.232792  347863.906200
   11856.8150  162507.340000  286351.240225  346154.937123
   11857.5750  162470.340000  285991.234581  345272.914915
   11858.3340  162323.340000  285401.246317  343875.946586
   11859.0930  162655.340000  285572.256207  343143.931191
   11859.8530  162086.340000  284162.243855  340474.916504
   11860.6110  162674.340000  284666.234851  339574.915954
   11861.3570  162376.340000  283534.250085  336243.946392
   11862.1180  162684.340000  283423.248700  333670.927009
   11862.8770  163068.340000  283235.236499  329652.930992
   11863.6370  162566.340000  281186.250971  320675.934906
   11864.3960  163555.340000  281640.237807  312070.930718
   11865.1550  162774.340000  278582.243463  295214.932099
   11865.9030  161813.340000  274578.240283  273748.928424
   11866.6630  162443.340000  272857.249833  254922.952908
   11867.4230  162559.340000  269381.234348  235388.938700
   11868.1830  163567.340000  265276.232796  215217.936096
   11868.9430  162456.340000  255026.251966  193997.949369
   11869.7030  162004.340000  244020.252768  178883.959558
   11870.4510  162347.340000  229117.234604  164896.946821
   11871.2130  161984.340000  208102.253838  148999.949034
   11871.9730  161733.340000  186954.249085  134058.950139
   11872.7210  161786.340000  163894.245587  118625.951247
   11873.4820  162097.340000  142447.244764  105437.949025
   11874.2430  161942.340000  128795.251525  98146.950058
   11875.0040  162848.340000  123583.252496  97142.953229
   11875.7540  161281.340000  125557.245420  101415.951700
   11876.5150  161738.340000  135782.242474  111407.944968
   11877.2750  162006.340000  149468.246200  123874.947678
   11878.0250  161518.340000  163649.246498  136779.945413
   11878.7860  161807.340000  174342.245977  146771.946568
   11879.5480  162151.340000  180007.244387  152377.942218
   11880.3090  161459.340000  181584.252347  154444.953721
   11881.0600  161524.340000  181950.240051  155306.944119
   11881.8200  161637.340000  181593.247799  155375.953061
   11882.5820  161757.340000  181137.246344  155256.953836
   11883.3330  161903.340000  181025.243880  155278.952116
   11884.0950  161655.340000  180769.246728  155027.952281
   11884.8450  161258.340000  180325.251892  154572.953413
   11885.6070  162079.340000  181037.242257  155183.947048
   11886.3570  161846.340000  180433.243378  154703.946294
   11887.1200  161785.340000  179849.249072  154323.954691
   11887.8820  161944.340000  179551.252415  154117.961960
   11888.6340  161492.340000  178779.251188  153527.961677
   11889.3960  161259.340000  178728.246538  153471.944215
   11890.1460  161727.340000  180116.241907  154554.939845
   11890.9100  161567.340000  181460.250045  155704.958012
   11891.6730  161125.340000  182759.242411  156750.939234
   11892.4230  161352.340000  185209.241491  158917.948369
   11893.1880  161081.340000  187312.239583  160919.936873
   11893.9380  161597.340000  189885.239217  163461.940849
   11894.7010  161442.340000  191643.246224  165421.944819
   11895.4520  161376.340000  193279.253559  167385.954845
   11896.2160  161201.340000  194336.237669  168762.945805
   11896.9680  160970.340000  195036.247209  169722.953846
   11897.7310  160413.340000  195255.246504  170140.958148
   11898.4840  161112.340000  196846.253635  171547.961369
   11899.2480  161683.340000  198190.250599  172615.958009
   11900.0000  161075.340000  198260.238950  172471.948497
   11901.2820  161761.340000  200713.223216  174259.948125
   11902.5780  161362.330000  202259.198006  175419.953475
   11903.8960  161627.300000  204774.150608  177673.939061
   11905.2290  161142.250000  206574.064771  179443.934275
   11906.5740  160501.190000  208022.959719  180946.925118
   11907.9560  161826.120000  212305.807919  184851.892889
   11909.3520  161345.050000  213634.655629  186034.890486
   11910.7590  161283.940000  214977.466175  187062.879463
   11912.1910  161455.840000  215780.258638  187480.861601
   11913.6380  161553.720000  215673.031752  187045.821001
   11915.1070  162327.580000  215729.777049  186873.813004
   11916.5920  161570.440000  213326.511230  184935.794589
   11918.1010  161730.280000  211670.201357  184106.742081
   11919.6330  162171.110000  210381.870932  183855.718675
   11921.1800  162085.920000  208474.506964  183020.682395
   11922.7390  162026.730000  206740.135721  182122.642791
   11924.3230  162933.520000  206722.737871  182411.616917
   11925.9330  162803.300000  205703.317345  181714.581689
   11927.5550  163195.060000  205763.854212  181817.524678
   11929.1890  163463.810000  205920.386393  181868.485781
   11930.8510  163367.560000  205638.882209  181323.427965
   11932.5360  164328.280000  206467.380118  181525.390121
   11934.2330  164534.000000  205978.838087  180411.334554
   11935.9580  164549.700000  204856.237417  178715.267005
   11937.6950  165200.390000  204294.651503  177617.208729
   11939.4430  165431.060000  203335.038015  176469.146220
   11941.2190  164869.730000  201523.388562  174934.102684
   11943.0200  166199.390000  202157.725522  175771.017696
   11944.8330  166397.020000  201919.038908  175895.983867
   11946.6590  167288.640000  202994.321088  177104.898464
   11948.5110  167877.270000  204030.578398  178281.823571
   11950.3870  168656.860000  205360.821457  179718.769360
   11952.2780  168142.450000  204945.017694  179599.673294
   11954.1930  168453.030000  205370.210889  180258.594716
   11956.1100  168699.590000  205537.368489  180789.534015
   11958.0630  169432.140000  206184.519310  181807.437760
   11960.0310  170058.670000  206746.621992  182553.356588
   11962.0120  170100.200000  206793.720106  182572.266448
   11964.0190  170857.720000  207970.774658  183443.178094
   11966.0500  171458.220000  209154.836415  184387.094414
   11968.0950  171589.700000  209980.834432  185225.992742
   11970.1520  172631.170000  211907.816718  187505.889073
   11972.2360  173269.640000  213298.798775  189716.792399
   11974.3340  175159.080000  216215.736554  193443.714608
   11976.4560  174713.520000  216255.656773  194366.587831
   11978.5930  175183.940000  217533.575262  196096.504437
   11980.7540  175716.360000  219131.433797  197776.381110
   11982.9290  177005.750000  221888.259134  200318.263235
   11985.1300  177435.140000  223541.087464  201754.141271
   11987.3450  178337.520000  225642.894013  203318.056679
   11989.5850  178190.870000  226114.674337  203167.930144
   11991.8370  180764.220000  229813.412606  205708.790466
   11994.1040  180556.550000  229824.143985  204840.683862
   11996.3960  182359.870000  232375.835721  206206.551261
   11998.7150  182721.190000  233131.515642  206103.431851
   12001.0470  183046.480000  233945.155496  206402.286110
   12003.3930  183284.770000  234690.790718  207080.159768
   12005.7650  184432.030000  236571.406956  209053.038923
   12008.1490  185379.300000  238156.994370  210881.907439
   12010.5610  186915.550000  240340.534298  213225.760014
   12012.9850  187385.780000  241052.050285  214336.623565
   12015.4370  188054.000000  241925.579378  215685.484360
   12017.9000  189648.200000  243924.042823  218021.324524
   12020.3790  191139.410000  245763.516146  220175.192081
   12022.8830  191514.580000  246144.938048  221108.037934
   12025.4010  193059.750000  247982.362947  223426.885540
   12027.9450  193889.910000  248861.750591  224797.753302
   12030.5020  194380.050000  249214.099235  225612.582893
   12033.0870  194709.190000  249285.446679  226144.413296
   12035.6860  196313.310000  250992.737228  228108.237769
   12038.3100  197807.410000  252518.037187  229899.098518
   12040.9480  198797.500000  253408.299190  231138.923154
   12043.6010  199922.590000  254669.529423  232625.748277
   12046.2780  200534.660000  255341.764213  233585.591689
   12048.9710  202748.720000  258146.945705  236526.414232
   12051.6880  203213.750000  258769.105811  237390.230850
   12054.4210  204136.780000  259984.251847  238442.048926
   12057.1690  205069.800000  261293.372592  239245.872652
   12059.9400  206248.810000  262988.460687  240385.680481
   12062.7290  207310.800000  264603.536353  241721.504712
   12065.5430  209068.780000  267095.557795  244229.307482
   12068.3690  209668.750000  268086.584383  245501.116329
   12071.2110  210755.700000  269719.584338  247129.928040
   12074.0800  212284.640000  271989.568823  248964.756340
   12076.9770  214048.580000  274572.515363  250862.559791
   12079.8720  214345.500000  275298.427208  251021.333394
   12082.7960  215707.390000  277407.352716  252506.149621
   12085.7460  217886.280000  280553.230021  255059.947383
   12088.7120  219363.170000  282890.067140  257037.738580
   12091.6910  220248.030000  284473.874662  258674.529963
   12094.6960  220604.890000  285374.677110  260064.303968
   12097.7040  221893.720000  287344.466712  262616.091737
   12100.7500  223372.550000  289511.235222  265387.890981
   12103.8120  224502.370000  291286.920910  267799.641326
   12106.8890  227689.170000  295833.651850  272612.433595
   12109.9780  227455.970000  295957.357427  273406.232746
   12113.0960  229005.730000  298432.007129  276461.006327
   12116.2390  231192.500000  301800.618839  280456.775998
   12119.3870  230934.250000  301954.226490  281492.568608
   12122.5600  233212.000000  305395.821651  285499.321091
   12125.7460  234792.720000  307841.389865  288614.108851
   12128.9620  236442.440000  310384.917204  291643.855713
   12132.1920  237985.140000  312779.395315  294297.616035
   12135.4490  239222.830000  314802.910063  296367.379194
   12138.7210  240694.500000  317203.363843  298543.115968
   12142.0080  241034.160000  318032.814016  299004.874575
   12145.3090  241898.810000  319429.214438  300030.620630
   12148.6380  243810.450000  322245.629453  302410.380005
   12151.9800  247164.080000  326983.956689  306689.114325
   12155.3510  248266.690000  328728.318925  308192.880167
   12158.7370  250083.300000  331430.641789  310714.639275
   12162.1370  250530.870000  332308.929388  311692.335295
   12165.5530  252178.450000  334782.200231  314207.106028
   12168.9950  254239.020000  337680.454748  317273.858592
   12172.4530  256408.560000  340723.640343  320529.549367
   12175.9390  257023.090000  341740.824004  321916.293997
   12179.4410  259261.620000  344881.013006  325188.013359
   12182.9560  260979.140000  347289.171705  327631.765236
   12186.4990  262216.620000  348981.271015  329411.459467
   12190.0450  263798.120000  351156.366773  331786.179454
   12193.6320  266376.590000  354733.448954  335736.887213
   12197.2210  267845.060000  356937.493780  338404.619620
   12200.8380  268816.500000  358456.527575  340362.341587
   12204.4710  270194.940000  360712.520321  342987.052446
   12208.1160  272277.340000  363875.501097  346621.781685
   12211.7930  274517.780000  367385.472698  350649.472687
   12215.4830  275713.160000  369438.376066  353436.190030
   12219.1890  276528.560000  370944.259271  355859.886726
   12222.9230  278955.910000  374620.210459  360323.615883
   12226.6720  281222.280000  378052.013748  364483.265173
   12230.4380  283843.620000  382060.836089  369013.992252
   12234.2180  285960.970000  385308.662159  372773.692494
   12238.0250  286944.280000  387099.455345  375090.391367
   12241.8500  288475.590000  389621.195030  378002.039957
   12245.6890  289942.870000  391992.929867  380669.743237
   12249.5580  292143.160000  395408.677290  383968.457043
   12253.4430  292280.440000  396006.352316  384389.131333
   12257.3410  294583.690000  399626.011816  387712.823240
   12261.2570  297489.940000  404111.612871  392094.455741
   12265.2010  299128.190000  406955.242704  395024.149343
   12269.1580  301104.410000  410199.850703  398483.818617
   12273.1360  302766.590000  412995.409803  401457.505575
   12277.1260  305348.780000  417093.936679  405705.154059
   12281.1460  305765.970000  418256.426692  407122.834843
   12285.1820  308815.160000  423017.948763  412231.510495
   12289.2320  310026.310000  425255.414985  415031.165435
   12293.3130  313071.440000  430038.830160  420418.799996
   12297.3970  314608.560000  432660.259272  423728.478587
   12301.5080  315655.690000  434644.663148  426375.132265
   12305.6500  317479.810000  437630.009297  430026.758473
   12309.7950  319388.910000  440786.360090  433782.425137
   12313.9700  322357.970000  445371.709672  439041.084883
   12318.1580  323380.030000  447277.002502  441634.720009
   12322.3640  326372.090000  451928.242119  447007.369411
   12326.5860  327052.120000  453363.506624  449207.006547
   12330.8240  329480.160000  457323.738612  453909.675537
   12335.0920  331209.190000  460254.947529  457702.290360
   12339.3770  333510.190000  463960.082584  462164.894826
   12343.6890  335467.190000  467114.241996  466130.523052
   12348.0070  336369.160000  468477.393379  468944.174395
   12352.3530  338932.120000  472487.480999  472970.825243
   12356.7020  342181.090000  477848.577986  478335.452988
   12361.0800  343496.030000  480200.610004  480691.015897
   12365.4890  345057.940000  482872.645494  484465.645628
   12369.9020  346635.870000  485529.652940  487917.277899
   12374.3440  349451.780000  489988.628469  493010.909514
   12378.8030  352276.660000  494390.619667  497966.525950
   12383.2780  354127.530000  497516.540108  501483.134384
   12387.7700  354315.410000  498378.438519  502694.719386
   12392.2790  357673.250000  503656.334820  508489.366177
   12396.8160  360066.090000  507637.138437  512992.922066
   12401.3710  361384.910000  510098.999220  515993.528119
   12405.9430  362702.720000  512606.833845  519053.144379
   12410.5320  365442.530000  517054.575155  524171.698826
   12415.1390  368253.310000  521728.346679  529534.285557
   12419.7620  369220.090000  523717.080657  532315.924483
   12424.4150  371676.870000  527855.803916  537353.490893
   12429.0850  374384.620000  532363.466996  542802.093442
   12433.7720  377116.340000  536953.196850  548355.694535
   12438.4760  378883.090000  540102.797855  552530.236084
   12443.1970  380395.780000  543021.458204  556479.836316
   12447.9370  381953.500000  545955.010200  560588.448798
   12452.7050  385832.190000  552242.540094  568014.975679
   12457.4910  385862.840000  553018.121005  569764.558099
   12462.2810  391115.530000  561331.639992  579260.140541
   12467.1030  393254.160000  565186.135579  584208.699061
   12471.9400  394008.810000  566998.619768  587061.244685
   12476.8110  396057.440000  570788.050791  591859.799247
   12481.6830  398074.030000  574406.476557  596484.348925
   12486.5740  399586.620000  577367.894855  600266.955879
   12491.4960  402609.220000  582436.236427  606306.488056
   12496.4350  403925.780000  585120.640011  609821.077283
   12501.3790  405519.340000  588174.908219  613718.593690
   12506.3530  407538.910000  591854.254461  618262.189774
   12511.3450  411312.440000  598051.529722  625541.716258
   12516.3540  411976.970000  599748.769320  628155.269119
   12521.3960  413563.470000  602875.011367  632272.825708
   12526.4390  417270.970000  609033.161689  639615.349278
   12531.5040  419387.470000  612917.376891  644461.878713
   12536.5990  421744.940000  617134.520551  649703.460207
   12541.7110  423742.370000  620834.631527  654423.943196
   12546.8270  424124.840000  622097.756921  656671.508152
   12551.9750  426974.280000  627074.828506  662782.019587
   12557.1420  430088.690000  632427.850180  669362.537714
   12562.3270  430365.090000  633558.915200  671600.040135
   12567.5300  434297.500000  640128.913321  679517.537811
   12572.7510  436737.870000  644502.934366  685147.124370
   12577.9900  440497.250000  650767.868914  692927.615261
   12583.2600  440873.590000  652125.801477  695428.116141
   12588.5360  441705.940000  654165.754475  698725.629481
   12593.8300  445368.280000  660363.628387  706561.194932
   12599.1560  447687.590000  664639.471425  712372.654333
   12604.4860  448873.910000  667289.326182  716409.201546
   12609.8500  450465.220000  670536.119627  721138.678705
   12615.2170  455742.500000  679263.930695  731763.180005
   12620.6160  455898.750000  680400.670102  734137.672240
   12626.0210  458337.030000  684927.427130  740167.177967
   12631.4580  460308.250000  688780.108186  745443.671814
   12636.9140  461332.500000  691252.826052  749283.203714
   12642.3890  463946.720000  696037.485977  755511.609355
   12647.8670  464286.910000  697508.222147  758158.162592
   12653.3800  469467.090000  706273.743030  768695.613802
   12658.9100  470711.280000  709034.377334  772782.124980
   12664.4600  473130.470000  713640.964874  778866.591846
   12670.0270  476376.620000  719584.498396  786372.060520
   12675.6160  477421.750000  722092.012672  790264.573175
   12681.2220  479109.870000  725740.523145  795351.022391
   12686.8480  482086.000000  731271.003868  802622.508060
   12692.4790  483724.090000  734803.401283  807677.901419
   12698.1440  484718.190000  737362.898442  811746.460398
   12703.8250  487188.280000  742132.248880  818173.871022
   12709.5280  490385.340000  748016.614937  825972.301950
   12715.2500  494335.410000  755069.995637  835037.767532

