# XDI/1.0
# Column.1: energy eV
# Column.2: i0
# Column.3: itrans
# Column.4: irefer
# Beamline.name: SSRL 2-3
# Beamline.notes: vert slits = 0.6mm
# Detector.I0: N2 15cm
# Detector.I1: Ar 30cm
# Detector.I2: Ar 15cm
# Element.edge: K
# Element.symbol: As
# Mono.d_spacing: 3.13550
# Mono.name: Si(111)
# Mono.notes: unfocused, detuned 75%, clockwise at E=12000eV
# Sample.formula: As2S3
# Sample.name: As2S3 arsenious sulfide (orpiment)
# Sample.prep: powder on tape (5 layers)
# Sample.reference: GaAs powder
# Sample.temperature: 100K
# Scan.start_time: 1997-04-19 22:41:20
# ///
#    Note: mono d_spacing is nominal!
#     exafs to K16, GaAs in IR
#     413  E XMU XMUR I0
#-------------
#   energy   i0   itrans  irefer
   11634.8900  518893.310000  92592.513776  37762.007086
   11644.9080  516160.310000  92448.468827  37916.986168
   11654.9440  513109.310000  92241.478290  38066.990000
   11664.9980  510418.310000  92100.521467  38239.010248
   11675.0700  508326.310000  92055.493359  38436.997945
   11684.8620  505894.310000  91948.512528  38613.006434
   11694.9690  502367.310000  91630.532957  38708.013484
   11705.0930  499557.310000  91457.494763  38860.998027
   11714.9370  497389.310000  91394.476035  39062.988749
   11725.0950  494468.310000  91206.490661  39209.994031
   11734.9740  492279.310000  91136.488701  39391.996402
   11744.8670  490253.310000  91063.513782  39599.005991
   11755.0790  486941.310000  90777.513156  39700.004557
   11765.0090  484322.310000  90601.486014  39860.992528
   11774.9540  482332.310000  90533.533350  40053.013588
   11784.9180  479748.310000  90364.510939  40196.004985
   11794.8960  477434.310000  90216.521887  40356.007959
   11804.8950  474992.310000  90034.471569  40494.988043
   11814.9090  471925.310000  89701.521547  40549.008604
   11824.9400  469708.310000  89526.519175  40680.008699
   11834.9890  467263.310000  89157.541289  40692.017043
   11845.0570  465351.310000  88643.492725  40577.995045
   11845.3610  464800.310000  88516.490898  40517.994030
   11845.9730  463966.310000  88359.519613  40448.009841
   11846.5830  464593.310000  88421.523698  40475.008952
   11846.8890  464516.310000  88409.521283  40480.009945
   11847.4990  464289.310000  88328.504594  40436.003783
   11848.1100  463786.310000  88203.523161  40379.010479
   11848.4150  463655.310000  88152.512394  40358.006842
   11849.0270  463659.310000  88101.542107  40323.020609
   11849.6370  462931.310000  87906.494279  40242.996332
   11849.9420  462440.310000  87789.463625  40179.985124
   11850.5560  461949.310000  87669.509124  40127.005698
   11850.8600  462694.310000  87765.509964  40163.005007
   11851.4710  462317.310000  87619.491028  40080.994667
   11852.0830  462124.310000  87500.536446  40015.017620
   11852.3900  462459.310000  87529.473330  40028.987322
   11853.0000  463131.310000  87553.463727  40013.985111
   11853.6100  462791.310000  87392.478284  39957.988638
   11853.9170  462457.310000  87263.497651  39871.000295
   11854.5290  462412.310000  87103.488871  39777.993768
   11855.1400  462577.310000  86985.522759  39692.009672
   11855.4460  462635.310000  86920.514649  39649.005917
   11856.0580  462258.310000  86651.458438  39488.980069
   11856.3630  462252.310000  86546.502233  39420.999934
   11856.9760  462473.310000  86321.512877  39284.005338
   11857.5880  462029.310000  85958.474985  39065.988559
   11857.8940  461641.310000  85773.508859  38956.003902
   11858.5040  462094.310000  85460.476375  38731.991196
   11859.1180  461677.310000  84936.522539  38414.011807
   11859.4240  461439.310000  84647.497001  38239.000081
   11860.0350  460876.310000  83927.530889  37786.012670
   11860.6470  461201.310000  83220.493101  37314.997695
   11860.9550  461130.310000  82853.473749  37083.987444
   11861.5660  460846.310000  81700.539352  36353.017156
   11861.8720  460421.310000  80998.526376  35917.012233
   11862.4840  460397.310000  79308.462193  34828.984710
   11863.0980  460178.310000  77069.533344  33427.012975
   11863.4030  459668.310000  75851.475932  32670.991176
   11864.0170  459180.310000  72106.483587  30403.993508
   11864.6280  459394.310000  67153.490648  27531.995593
   11864.9350  459329.310000  64175.492676  25866.996864
   11865.5470  459270.310000  56996.504842  22070.002806
   11865.8540  458965.310000  53528.521814  20328.007803
   11866.4670  459427.310000  44798.503534  16118.001220
   11867.0780  459707.310000  36160.487036  12162.993283
   11867.3880  459423.310000  32633.488936  10600.000296
   11867.9990  459161.310000  27149.498812  8181.999728
   11868.6110  459460.310000  24575.488938  6921.998729
   11868.9190  459427.310000  24394.500940  6739.998724
   11869.5320  459283.310000  25923.509320  6953.000220
   11870.1450  458963.310000  29412.485828  7851.999967
   11870.4510  458729.310000  31573.504306  8452.999067
   11871.0640  458749.310000  36366.495420  9806.994889
   11871.3710  458447.310000  38139.495286  10324.000878
   11871.9850  457510.310000  42199.501998  11538.997897
   11872.5990  457134.310000  45120.479876  12470.991192
   11872.9050  457644.310000  46142.492270  12813.999275
   11873.5180  457446.310000  47286.484875  13272.995036
   11874.1330  457257.310000  47425.510210  13475.002119
   11874.4390  457645.310000  47336.489760  13527.997838
   11875.0530  457813.310000  46780.501474  13588.997812
   11875.3580  457746.310000  46465.500958  13606.996682
   11875.9750  457625.310000  45890.482786  13679.997765
   11876.5880  457350.310000  45549.499691  13802.995584
   11876.8940  457819.310000  45544.487094  13889.992081
   11877.5090  457573.310000  45534.492347  14075.998492
   11878.1230  456885.310000  45658.482081  14262.994652
   11878.4300  457068.310000  45809.516554  14362.000357
   11879.0440  457137.310000  46100.500431  14556.997492
   11879.3510  457045.310000  46216.484074  14622.998552
   11879.9660  456427.310000  46427.476692  14763.995112
   11880.5800  456263.310000  46660.504420  14898.999709
   11880.8870  456762.310000  46825.510295  14963.997452
   11881.5000  455926.310000  46958.498246  15044.992259
   11882.1160  456047.310000  47161.484548  15127.988242
   11882.4240  456256.310000  47249.484080  15159.990218
   11883.0370  456068.310000  47430.505656  15210.007524
   11883.6520  455774.310000  47559.509229  15245.002627
   11883.9590  455174.310000  47571.481070  15241.994959
   11884.5740  454542.310000  47642.489546  15265.997973
   11884.8810  455050.310000  47746.510431  15299.007917
   11885.4960  454623.310000  47845.505567  15346.005098
   11886.1100  454169.310000  47911.475993  15381.985593
   11886.4190  454700.310000  48030.515217  15429.010602
   11887.0340  455154.310000  48202.481557  15492.987533
   11887.6480  454941.310000  48333.476780  15546.995766
   11887.9550  454580.310000  48358.480162  15551.989891
   11888.5720  455112.310000  48569.522428  15615.003637
   11888.8790  455292.310000  48670.478350  15650.997488
   11889.4930  454655.310000  48790.497543  15679.005237
   11890.1090  454117.310000  48908.517178  15702.007285
   11890.4170  454125.310000  48985.492026  15732.005012
   11891.0320  454576.310000  49217.477705  15794.989955
   11891.6480  454320.310000  49377.481387  15841.997416
   11891.9560  453776.310000  49419.514046  15859.003249
   11892.5700  453871.310000  49614.478665  15932.000548
   11892.8790  454079.310000  49721.521842  15979.008217
   11893.4950  453716.310000  49867.482393  16066.994470
   11894.1090  453261.310000  50010.490951  16158.994061
   11894.4190  453483.310000  50120.518053  16209.013335
   11895.0350  453705.310000  50314.479091  16334.001069
   11895.6490  453392.060000  50469.249286  16445.752313
   11896.2660  452967.340000  50585.502620  16527.026751
   11896.8810  453034.120000  50770.295166  16625.845506
   11897.4980  453341.440000  50957.582565  16700.164543
   11898.4220  453328.250000  51174.352396  16762.989944
   11899.0380  453227.590000  51280.645767  16784.358407
   11899.6550  453234.440000  51394.466921  16792.234026
   11900.5800  453583.810000  51585.728746  16838.620031
   11901.1950  453199.720000  51620.553216  16827.541369
   11902.1210  453736.090000  51768.907589  16871.971086
   11903.0450  454309.030000  51884.736334  16915.927764
   11903.6620  454740.470000  51953.072573  16952.407525
   11904.5870  454829.410000  51957.881830  16975.386222
   11905.5130  454896.870000  51928.238360  16983.898258
   11906.4380  455293.870000  51918.131236  17009.943394
   11907.3630  456214.370000  51934.474006  17028.472716
   11908.2910  456835.370000  51886.367407  17022.552547
   11909.2150  456811.910000  51726.733181  16977.139956
   11910.1430  457482.970000  51617.649572  16938.254774
   11911.0680  458243.530000  51497.062525  16895.896262
   11912.3030  459050.590000  51276.954532  16789.025382
   11913.2290  458934.220000  51027.356366  16692.689820
   11914.1560  459648.310000  50852.315309  16624.884740
   11915.3920  461120.940000  50661.758274  16567.606137
   11916.3180  462033.090000  50524.658887  16540.807541
   11917.5560  461596.750000  50168.115447  16489.563645
   11918.7930  462723.940000  50023.086775  16519.832592
   11919.7190  464000.620000  49966.555341  16565.610476
   11920.9570  465122.840000  49882.515109  16603.915528
   11922.1930  466005.560000  49792.011792  16612.751538
   11923.4320  466244.810000  49692.988144  16611.078288
   11924.6690  467523.560000  49732.455253  16645.946664
   11925.9080  469049.840000  49843.496746  16698.335294
   11927.1460  469782.620000  49913.977666  16725.225305
   11928.3840  470558.940000  50011.012049  16749.647649
   11929.6230  471645.750000  50160.515538  16788.584714
   11930.8610  473263.090000  50389.531719  16840.041101
   11932.4110  474844.970000  50679.088597  16883.019809
   11933.6510  476099.310000  50953.144082  16935.524666
   11934.8910  477133.220000  51249.698707  16978.532282
   11936.4410  478432.620000  51636.789122  17056.073988
   11937.9920  479860.530000  52063.363165  17171.130240
   11939.2320  481278.970000  52440.441667  17291.708016
   11940.7840  481579.940000  52793.983761  17433.789359
   11942.3360  482210.410000  53167.087775  17596.403843
   11943.5770  483309.370000  53537.693981  17750.540501
   11945.1300  486969.870000  54272.803905  18032.203678
   11946.6840  489586.910000  54847.411580  18250.363447
   11948.2370  491115.440000  55279.559570  18425.069538
   11949.7910  493049.470000  55737.184743  18616.280877
   11951.3460  493859.030000  56030.327805  18735.012737
   11952.8990  495937.120000  56423.974304  18910.250783
   11954.7670  496803.720000  56642.127955  19030.025447
   11956.3220  499403.840000  57027.811338  19207.312522
   11957.8780  501990.470000  57357.988945  19359.129857
   11959.7450  502793.620000  57464.639171  19409.444698
   11961.3010  504636.280000  57645.831216  19472.299791
   11963.1710  505807.440000  57736.528156  19483.657621
   11964.7290  509079.160000  58033.737652  19590.554270
   11966.5980  511533.340000  58220.455619  19676.947327
   11968.4700  513355.090000  58336.664478  19775.875564
   11970.0270  515007.310000  58424.428274  19897.340802
   11971.9000  517272.090000  58561.648644  20067.287914
   11973.7710  519015.340000  58632.399693  20203.774423
   11975.6440  520707.160000  58692.609194  20310.760323
   11977.5190  523348.470000  58849.393796  20418.299495
   11979.3920  525748.250000  58998.645499  20497.326971
   11981.2670  527831.620000  59111.431454  20553.892341
   11983.1410  529644.500000  59199.732706  20594.993799
   11985.0170  530864.870000  59223.504985  20589.587910
   11987.2060  532156.750000  59252.803112  20561.699317
   11989.0830  535870.120000  59604.603932  20624.337661
   11991.2730  539151.060000  59916.911334  20663.498606
   11993.1510  542394.500000  60250.724456  20705.173497
   11995.3440  544085.440000  60464.069337  20704.380440
   11997.2250  546235.940000  60756.921321  20746.094393
   11999.4170  549170.870000  61188.216596  20861.318021
   12001.2990  551311.370000  61554.056078  21004.059937
   12003.4940  553684.440000  62025.458490  21205.358763
   12005.6880  556683.940000  62599.334446  21452.145125
   12007.8860  558393.000000  63050.690599  21656.464813
   12010.0830  560235.560000  63561.588796  21891.300887
   12012.2820  562365.620000  64087.940324  22133.630806
   12014.4810  566096.250000  64835.877596  22466.518106
   12016.6820  570471.370000  65629.283030  22796.909625
   12018.8810  573546.000000  66248.189924  23077.823681
   12021.0830  575557.120000  66719.580867  23313.240852
   12023.6020  579179.810000  67374.525197  23629.194014
   12025.8040  580874.000000  67723.948773  23817.649128
   12028.0080  584048.690000  68177.892311  24047.651779
   12030.5270  586446.870000  68542.368736  24242.155385
   12032.7330  590197.620000  69043.340457  24470.184811
   12035.2570  593565.870000  69442.786212  24671.733450
   12037.7800  595770.620000  69717.734594  24831.790995
   12039.9890  598766.870000  70076.207167  25015.367192
   12042.5140  602859.690000  70528.260178  25231.506791
   12045.0400  605442.000000  70782.710564  25375.109936
   12047.5660  608228.810000  71058.760214  25533.265806
   12050.0960  610481.120000  71283.249333  25664.927409
   12052.6250  612906.000000  71520.246680  25752.084621
   12055.1540  615213.370000  71734.811852  25803.809878
   12057.6880  617950.250000  72016.837987  25876.027284
   12060.2210  623094.690000  72590.386638  26073.761381
   12062.7540  626989.620000  73010.406477  26262.025160
   12065.2880  630209.060000  73372.969555  26442.791964
   12068.1420  633749.000000  73776.037001  26637.099896
   12070.6780  637151.440000  74183.619676  26804.917694
   12073.2180  640922.440000  74661.715533  26961.271602
   12076.0730  642857.940000  74950.340435  27020.119812
   12078.6150  647074.940000  75507.433978  27195.489020
   12081.4730  648802.500000  75817.971537  27268.368190
   12084.3350  653379.560000  76482.137448  27501.820876
   12086.8780  655911.120000  76919.720876  27666.721248
   12089.7420  661273.190000  77698.896289  27977.204469
   12092.6060  663793.810000  78186.545017  28244.184391
   12095.4740  667191.870000  78778.700785  28553.675467
   12098.3400  670587.560000  79401.343067  28883.667106
   12101.2090  673778.690000  79997.445577  29208.176987
   12104.0800  677668.310000  80688.168203  29551.276768
   12106.9520  681291.500000  81336.287814  29869.809709
   12109.8250  684459.190000  81928.017206  30194.920739
   12112.6970  685880.440000  82320.184010  30441.518806
   12115.8940  692769.120000  83369.937563  30972.666307
   12118.7710  695285.370000  83860.136177  31253.312345
   12121.6500  699460.190000  84544.826126  31629.469983
   12124.8500  702460.440000  85084.007032  31946.144048
   12127.7310  706319.250000  85675.793610  32241.370652
   12130.9360  709860.560000  86223.999585  32518.083708
   12133.8190  714344.370000  86881.763752  32808.336904
   12137.0270  716465.690000  87223.026425  32970.105619
   12140.2350  721950.560000  87975.789745  33238.390894
   12143.4450  724727.940000  88354.075723  33370.201438
   12146.3370  729182.810000  88913.809574  33585.508146
   12149.5510  732180.250000  89332.085800  33752.346027
   12152.7650  736055.120000  89831.887527  33952.711125
   12155.9810  740205.560000  90361.196357  34173.597104
   12159.2000  744017.560000  90839.992684  34387.988665
   12162.4210  747650.000000  91328.322587  34612.917621
   12165.6420  750546.000000  91741.142399  34822.354167
   12169.1890  755329.500000  92406.477397  35140.316090
   12172.4150  758965.500000  92888.358130  35396.810663
   12175.6430  764058.060000  93644.695079  35765.805418
   12178.8720  767868.060000  94216.556156  36037.325527
   12182.4260  771711.690000  94821.864582  36326.340863
   12185.6580  775519.750000  95450.754016  36605.904398
   12189.2180  778707.310000  96027.081436  36897.963137
   12192.4520  783156.440000  96753.980356  37263.558743
   12196.0160  786810.060000  97434.452747  37619.704629
   12199.5790  789733.250000  98006.345857  37938.336963
   12202.8220  794941.870000  98862.697393  38352.468465
   12206.3900  798384.060000  99517.624573  38701.143982
   12209.9610  802669.750000  100285.022732  39116.323438
   12213.5340  807586.000000  101133.006949  39562.054967
   12217.1070  810689.690000  101744.457847  39939.290134
   12220.6860  814630.940000  102480.360601  40356.023963
   12224.2630  818889.690000  103241.859502  40804.312981
   12227.8450  823084.000000  103992.757894  41225.073902
   12231.4270  827099.810000  104678.251787  41612.394890
   12235.0130  830705.060000  105347.226153  41955.222142
   12238.9270  835430.940000  106145.700946  42389.563477
   12242.5160  839803.250000  106892.711826  42781.434632
   12246.1080  842102.120000  107373.272269  43028.844346
   12250.0290  847137.500000  108185.248231  43409.734758
   12253.6250  851310.370000  108875.799038  43702.175094
   12257.5500  852883.750000  109251.793957  43869.111173
   12261.1520  859417.690000  110224.264142  44294.550470
   12265.0810  863291.120000  110878.384893  44618.562370
   12269.0160  864963.060000  111237.861037  44847.036065
   12272.6230  872046.560000  112274.954866  45319.074612
   12276.5610  876736.560000  113019.521402  45688.615796
   12280.5020  879395.060000  113492.554910  45959.663863
   12284.4450  883276.060000  114143.198860  46321.271835
   12288.3910  889424.620000  115083.247672  46797.353832
   12292.3380  893614.620000  115780.899586  47222.997467
   12296.2890  896883.250000  116373.017210  47583.140033
   12300.2430  901418.310000  117156.590803  48025.783498
   12304.1980  905334.870000  117864.645891  48448.932126
   12308.1580  908047.000000  118402.298986  48785.641567
   12312.1190  913897.620000  119366.495222  49305.885342
   12316.0840  917524.810000  120041.152373  49707.623935
   12320.3800  921781.440000  120847.225124  50172.850092
   12324.3490  923591.620000  121335.932962  50511.650076
   12328.6520  929074.310000  122345.098141  51079.943490
   12332.6270  933737.560000  123197.703898  51573.728938
   12336.6040  936864.250000  123861.919717  51982.077436
   12340.9150  942481.500000  124859.648001  52548.943396
   12345.2290  946586.250000  125711.813351  53042.304416
   12349.2150  950841.560000  126533.544267  53490.204575
   12353.5360  954526.370000  127317.665915  53948.579953
   12357.8590  958624.690000  128133.494048  54403.557269
   12362.1870  961718.500000  128819.704640  54818.996662
   12366.1830  966305.810000  129689.399571  55312.949960
   12370.5150  971011.690000  130579.665924  55834.446927
   12374.8510  975567.060000  131464.374943  56336.436015
   12379.1890  979645.940000  132250.681080  56773.991269
   12383.5320  982711.370000  132900.463788  57158.045299
   12387.8760  986724.250000  133678.627668  57599.559404
   12392.5600  989322.690000  134280.454587  57970.662144
   12396.9110  995943.690000  135395.715926  58561.256137
   12401.2650  1000568.100000  136262.506162  59055.378225
   12405.6210  1003593.100000  136879.905503  59437.066043
   12410.3170  1008374.600000  137770.603230  59945.175724
   12414.6820  1012433.600000  138535.029827  60412.909563
   12419.0490  1016521.200000  139316.801700  60882.086708
   12423.7550  1021238.200000  140204.082268  61441.781958
   12428.1290  1023941.800000  140792.048449  61833.072067
   12432.8420  1027844.900000  141588.301192  62347.792040
   12437.5600  1032190.500000  142448.213843  62919.096717
   12441.9420  1036926.600000  143372.541022  63485.874011
   12446.6660  1041635.300000  144300.388928  64084.181888
   12451.3950  1045488.400000  145114.839228  64634.054003
   12456.1250  1047781.100000  145745.794268  65114.442071
   12460.5220  1052894.300000  146739.092261  65710.276398
   12465.2610  1055245.900000  147349.026040  66153.685237
