#XDI/1.1  GSE/2.0
# Column.1: energy eV
# Column.2: ifluor
# Column.3: i0
# Scan.end_time: 2018-02-22 15:34:31
# Scan.start_time: 2018-02-22 15:29:28
# Element.symbol:  S
# Element.edge:  K
# Mono.d_spacing:  3.13477
# Mono.name: Si 111
# Sample.formula: CaS
# Sample.name: calcium sulfide
# Sample.prep: powder on tape halogen-free tape
# Sample.temperature: room temperature
# Facility.Name:  APS
# Beamline.Name:  13-ID-E
# Beamline.xray_source:  3.6cm undulator
# Beamline.I0: He, 200 cm
# Beamline.If: 4-element SDD (Vortex ME-4)
# ScanParameters.ScanType: xafs
# ScanParameters.E0: 2472.000
# ScanParameters.Legend:  Start, Stop, Step, K-space, Time
# ScanParameters.Region1:    -25.000,   -10.000,     1.500  False  1.00
# ScanParameters.Region2:    -10.000,    15.000,     0.100  False  1.00
# ScanParameters.Region3:     15.000,    75.000,     1.500  False  1.00
#-------------------------
#  energy  ifluor  i0
    2446.999      2852.73   9643051.00
    2448.498      2927.73   9656972.00
    2449.998      3478.01  10665125.00
    2451.499      3960.24  11110761.00
    2452.999      4162.34  11469157.00
    2454.499      4826.70  11918686.00
    2455.998      5081.79  11872618.00
    2457.498      5614.97  11806426.00
    2458.999      6114.22  11746526.00
    2460.412      6517.33  11321429.00
    2461.475      7178.60  11167398.00
    2462.012      7492.81  11101460.00
    2462.200      7611.84  11095338.00
    2462.301      7632.82  11075266.00
    2462.401      7717.91  11093675.00
    2462.502      7872.99  11142441.00
    2462.601      7930.05  11127156.00
    2462.701      8090.11  11186797.00
    2462.801      8077.08  11120730.00
    2462.901      8199.13  11122260.00
    2463.001      8324.24  11169967.00
    2463.102      8363.21  11135109.00
    2463.202      8601.37  11209782.00
    2463.301      8403.30  11149562.00
    2463.402      8577.37  11154692.00
    2463.502      8790.50  11253742.00
    2463.601      8899.60  11224858.00
    2463.701      8937.68  11193939.00
    2463.801      8949.64  11249773.00
    2463.902      9262.80  11264455.00
    2464.002      9319.83  11280926.00
    2464.101      9543.05  11349015.00
    2464.201      9436.96  11297620.00
    2464.301      9689.06  11235801.00
    2464.401      9768.15  11213058.00
    2464.501     10130.38  11279185.00
    2464.601     10097.36  11275353.00
    2464.702     10221.41  11228263.00
    2464.802     10554.69  11303505.00
    2464.901     10458.65  11328966.00
    2465.001     10865.85  11290988.00
    2465.102     10885.87  11205109.00
    2465.202     11136.03  11181057.00
    2465.301     11272.12  11233392.00
    2465.402     11284.16  11244574.00
    2465.501     11530.30  11257288.00
    2465.601     11802.54  11260624.00
    2465.702     12198.88  11314540.00
    2465.802     12190.83  11249326.00
    2465.901     12471.07  11237799.00
    2466.001     12713.26  11211977.00
    2466.101     13196.61  11280332.00
    2466.202     12922.43  11270195.00
    2466.302     13552.95  11275530.00
    2466.401     13639.09  11347246.00
    2466.501     14187.49  11353854.00
    2466.601     14572.87  11361753.00
    2466.702     14936.18  11330138.00
    2466.802     15157.46  11378106.00
    2466.901     15703.03  11419447.00
    2467.001     16033.25  11482937.00
    2467.101     16417.72  11463303.00
    2467.201     16982.32  11493462.00
    2467.301     17182.48  11495059.00
    2467.401     17807.12  11501601.00
    2467.501     18356.63  11452007.00
    2467.601     18640.03  11422975.00
    2467.701     19367.97  11478904.00
    2467.801     19803.32  11503516.00
    2467.901     20398.09  11499083.00
    2468.001     21167.06  11473393.00
    2468.101     21817.87  11497458.00
    2468.202     22588.81  11413798.00
    2468.301     22998.53  11439379.00
    2468.401     23980.64  11458082.00
    2468.501     24771.72  11383100.00
    2468.602     25439.71  11374333.00
    2468.702     26515.56  11446249.00
    2468.801     27431.75  11465121.00
    2468.901     28269.04  11291978.00
    2469.001     29776.50  11461405.00
    2469.101     30824.44  11462376.00
    2469.201     32803.93  11498665.00
    2469.301     34281.72  11478827.00
    2469.401     35432.74  11439954.00
    2469.502     37885.73  11431394.00
    2469.601     39898.57  11479599.00
    2469.701     42503.23  11532731.00
    2469.801     44541.40  11485700.00
    2469.901     47913.01  11443515.00
    2470.001     51363.01  11393891.00
    2470.101     54781.02  11414542.00
    2470.201     59457.18  11557098.00
    2470.301     64976.94  11573311.00
    2470.401     71407.80  11576492.00
    2470.501     78783.75  11577967.00
    2470.601     88395.32  11581901.00
    2470.701     99356.64  11512980.00
    2470.801    113205.39  11607986.00
    2470.901    127734.13  11655669.00
    2471.002    144035.56  11642784.00
    2471.102    162458.46  11593013.00
    2471.202    181842.01  11623153.00
    2471.301    198270.18  11581162.00
    2471.401    216970.14  11574435.00
    2471.501    235232.07  11577470.00
    2471.602    250660.43  11603598.00
    2471.702    264566.01  11580509.00
    2471.802    276919.89  11613800.00
    2471.902    288944.61  11604381.00
    2472.002    297726.15  11672976.00
    2472.102    304769.53  11625948.00
    2472.201    310579.53  11578461.00
    2472.301    316809.90  11644271.00
    2472.402    321096.54  11594617.00
    2472.502    325597.64  11640253.00
    2472.602    327991.37  11590382.00
    2472.701    330454.92  11605637.00
    2472.802    331350.64  11554044.00
    2472.902    333906.76  11608032.00
    2473.002    334224.60  11589389.00
    2473.102    335296.97  11670721.00
    2473.201    334347.66  11633433.00
    2473.301    334216.76  11677703.00
    2473.401    337071.35  11723774.00
    2473.501    337767.18  11709975.00
    2473.601    337743.85  11693657.00
    2473.701    340698.76  11675372.00
    2473.802    342771.04  11670656.00
    2473.902    344439.91  11664592.00
    2474.002    348042.92  11672817.00
    2474.101    348591.84  11685484.00
    2474.202    349628.46  11696500.00
    2474.301    349769.45  11726052.00
    2474.401    347678.86  11696584.00
    2474.501    347258.21  11687586.00
    2474.601    345296.64  11687129.00
    2474.702    344366.15  11685904.00
    2474.801    342220.53  11625359.00
    2474.901    338788.18  11576680.00
    2475.001    337618.43  11610413.00
    2475.101    338417.65  11777675.00
    2475.202    337095.41  11841386.00
    2475.301    335586.05  11849830.00
    2475.401    332300.61  11891592.00
    2475.502    331120.46  11884224.00
    2475.602    327485.02  11781275.00
    2475.702    324322.15  11717917.00
    2475.802    322812.09  11721424.00
    2475.902    323343.74  11721649.00
    2476.002    324135.87  11698204.00
    2476.102    325824.92  11755556.00
    2476.201    327833.55  11709228.00
    2476.301    330821.75  11418477.00
    2476.401    331005.61  11758745.00
    2476.501    335892.01  11725365.00
    2476.602    339917.28  11516117.00
    2476.702    342066.21  11724429.00
    2476.801    347012.24  11755258.00
    2476.901    351049.30  11759687.00
    2477.001    350444.96  11647007.00
    2477.101    354912.62  11695808.00
    2477.201    358058.30  11793375.00
    2477.302    361758.99  11833441.00
    2477.402    363379.96  11810934.00
    2477.501    365534.76  11868220.00
    2477.602    367039.24  11843070.00
    2477.702    364590.04  11653559.00
    2477.802    361978.84  11888968.00
    2477.902    359778.61  11847397.00
    2478.002    352906.79  11632146.00
    2478.102    345905.97  11956826.00
    2478.202    340568.87  11907122.00
    2478.302    331649.61  11849783.00
    2478.402    326111.05  11885589.00
    2478.502    319095.09  11961405.00
    2478.602    310719.47  11910469.00
    2478.702    303089.27  11896922.00
    2478.801    296805.54  11889251.00
    2478.902    288427.97  11911904.00
    2479.002    283159.26  11874887.00
    2479.102    278249.15  11873245.00
    2479.202    273070.28  11902520.00
    2479.301    265789.36  11883606.00
    2479.401    261119.26  11929172.00
    2479.501    256243.54  11929534.00
    2479.601    251470.26  11923842.00
    2479.701    247280.99  11946994.00
    2479.801    241702.04  11926270.00
    2479.901    237152.50  11934671.00
    2480.002    235062.46  12018009.00
    2480.102    229471.96  12000431.00
    2480.202    226103.50  12012014.00
    2480.302    221738.18  11967897.00
    2480.402    217797.69  11971723.00
    2480.502    214732.23  11982081.00
    2480.601    211761.44  11941039.00
    2480.701    208045.59  11919814.00
    2480.801    206616.67  11944261.00
    2480.901    201961.86  11780666.00
    2481.001    204910.50  11924879.00
    2481.102    203956.09  11912017.00
    2481.202    205788.06  11950208.00
    2481.301    206496.66  12030205.00
    2481.401    209840.98  12097085.00
    2481.501    212986.99  12067573.00
    2481.601    216634.41  12050037.00
    2481.701    221039.54  12066009.00
    2481.801    225523.78  12060581.00
    2481.901    229122.40  12059682.00
    2482.001    233947.29  12043523.00
    2482.101    238107.18  12025137.00
    2482.201    242752.72  12129057.00
    2482.301    247807.10  12157209.00
    2482.401    251355.59  12169405.00
    2482.501    255235.48  12127419.00
    2482.601    257668.90  12143789.00
    2482.701    261009.66  12119309.00
    2482.801    261496.11  12079730.00
    2482.901    263554.55  12082144.00
    2483.001    265091.99  12119435.00
    2483.101    266509.16  12089983.00
    2483.202    265835.65  12108577.00
    2483.301    265382.28  12148817.00
    2483.401    267092.25  12162944.00
    2483.502    267107.51  12167450.00
    2483.602    267006.82  12182889.00
    2483.701    268654.59  12161953.00
    2483.801    267493.38  12130314.00
    2483.901    270033.22  12217065.00
    2484.001    269888.03  12186003.00
    2484.101    271373.09  12163683.00
    2484.201    272926.00  12166420.00
    2484.301    275032.42  12205543.00
    2484.401    274422.77  12147114.00
    2484.501    276305.86  12126809.00
    2484.601    278464.14  12104363.00
    2484.702    278788.61  12049780.00
    2484.801    279394.68  12076583.00
    2484.901    283001.40  12129470.00
    2485.001    284027.95  12145169.00
    2485.102    285991.48  12162303.00
    2485.202    287071.24  12098333.00
    2485.302    288121.47  12115373.00
    2485.402    288840.30  12076459.00
    2485.502    290169.62  12080264.00
    2485.602    294139.39  12099970.00
    2485.702    294000.99  12052461.00
    2485.802    295593.61  12048634.00
    2485.902    299088.62  12089858.00
    2486.002    301411.49  12114154.00
    2486.102    302026.38  12065420.00
    2486.202    303290.84  12082043.00
    2486.302    303719.89  12073322.00
    2486.401    302784.72  11922645.00
    2486.502    303290.06  11958052.00
    2486.601    304582.58  12004144.00
    2486.701    304288.06  11995766.00
    2486.801    308153.51  12197549.00
    2486.989    310550.41  12434181.00
    2487.526    307130.45  12579378.00
    2488.588    293008.15  12458162.00
    2489.999    291637.30  12390750.00
    2491.500    298446.89  12521351.00
    2492.999    297302.06  12144863.00
    2494.499    313719.58  12142763.00
    2495.999    325552.74  12050224.00
    2497.499    320581.44  12136421.00
    2498.999    297791.87  12116357.00
    2500.499    283271.93  12149055.00
    2501.999    283888.38  12313529.00
    2503.499    284798.87  12153861.00
    2504.999    296034.69  12604336.00
    2506.499    299905.11  12624884.00
    2507.999    299314.09  12461857.00
    2509.499    303851.53  12489454.00
    2510.999    300477.88  12193096.00
    2512.499    308629.65  12218094.00
    2513.998    317116.32  12292678.00
    2515.499    325398.42  12491774.00
    2516.999    327022.47  12528495.00
    2518.499    330436.73  12713126.00
    2519.999    323831.11  12561029.00
    2521.499    320950.97  12663090.00
    2522.999    322254.03  12652841.00
    2524.499    328311.11  12667992.00
    2525.999    336779.92  12682129.00
    2527.499    337949.55  12637632.00
    2528.999    334993.68  12648212.00
    2530.499    328206.57  12541497.00
    2531.999    322285.08  12625012.00
    2533.500    312597.97  12505836.00
    2535.000    300353.64  11946950.00
    2536.499    293793.61  11483730.00
    2537.999    307411.46  11910597.00
    2539.499    312158.71  12049999.00
    2540.999    308045.22  11806040.00
    2542.500    307671.80  11804757.00
    2543.999    305550.54  11644019.00
